SpectraSuite Datei
++++++++++++++++++++++++++++++++++++
Datum: Mon Feb 18 16:09:45 CET 2019
Benutzer: tu65fis
Dark-Spektrum vorhanden: Ja
Referenz-Spektrum vorhanden: Ja
Zahl der probierten Teilspektren: 1
Spektrometer: USB2G47534
Integrationszeit (usec): 400000 (USB2G47534)
Spektren Durchschnitt berechnet: 1 (USB2G47534)
Boxcar Glättung: 0 (USB2G47534)
Dunkelstromkorrektur: Nein (USB2G47534)
Puls/Lampe aktiviert: Nein (USB2G47534)
Correct for Detector Non-linearity: Nein (USB2G47534)
Streulichtkorrektur: Nein (USB2G47534)
Anzahl Pixel in verarbeitetem Spektrum: 651
>>>>>Begin Processed Spectral Data<<<<<
350,00	-3,00
351,00	-4,15
352,00	-0,64
353,00	-7,37
354,00	-5,73
355,00	1,63
356,00	-4,21
357,00	-0,92
358,00	-11,57
359,00	-10,58
360,00	-9,12
361,00	-4,81
362,00	1,56
363,00	-3,98
364,00	3,63
365,00	-9,12
366,00	-0,15
367,00	-3,67
368,00	1,60
369,00	-3,31
370,00	-3,80
371,00	-2,00
372,00	4,54
373,00	-4,75
374,00	-1,49
375,00	3,26
376,00	-1,32
377,00	1,10
378,00	8,72
379,00	-6,74
380,00	0,62
381,00	-1,43
382,00	53,10
383,00	7,15
384,00	-7,36
385,00	-4,59
386,00	-7,58
387,00	-5,35
388,00	-7,17
389,00	-0,63
390,00	-3,11
391,00	-2,54
392,00	2,67
393,00	-6,97
394,00	-4,89
395,00	-9,63
396,00	-3,82
397,00	2,72
398,00	-6,52
399,00	-4,65
400,00	-2,10
401,00	6,94
402,00	-8,40
403,00	0,43
404,00	9,76
405,00	13,14
406,00	-0,44
407,00	6,53
408,00	6,40
409,00	8,46
410,00	3,88
411,00	8,10
412,00	0,09
413,00	16,84
414,00	4,24
415,00	8,43
416,00	18,67
417,00	29,26
418,00	27,49
419,00	32,78
420,00	40,80
421,00	41,10
422,00	46,75
423,00	56,27
424,00	79,69
425,00	72,66
426,00	89,20
427,00	98,53
428,00	99,56
429,00	101,84
430,00	129,57
431,00	140,49
432,00	157,33
433,00	173,11
434,00	259,62
435,00	918,47
436,00	773,17
437,00	488,49
438,00	232,66
439,00	243,49
440,00	250,94
441,00	269,13
442,00	288,21
443,00	298,11
444,00	308,95
445,00	313,73
446,00	302,57
447,00	298,92
448,00	326,64
449,00	322,82
450,00	339,26
451,00	322,35
452,00	332,65
453,00	331,31
454,00	325,26
455,00	331,83
456,00	329,95
457,00	316,53
458,00	316,55
459,00	326,10
460,00	322,64
461,00	307,15
462,00	317,29
463,00	305,41
464,00	308,31
465,00	316,01
466,00	317,28
467,00	313,65
468,00	303,48
469,00	331,07
470,00	327,69
471,00	316,10
472,00	326,21
473,00	345,14
474,00	338,48
475,00	329,44
476,00	351,01
477,00	356,27
478,00	372,33
479,00	365,66
480,00	387,82
481,00	440,20
482,00	524,87
483,00	642,12
484,00	809,90
485,00	1048,55
486,00	1280,09
487,00	1363,54
488,00	1376,35
489,00	1385,27
490,00	1280,95
491,00	1203,61
492,00	1119,30
493,00	1025,29
494,00	931,14
495,00	854,13
496,00	792,23
497,00	754,44
498,00	659,09
499,00	570,29
500,00	437,69
501,00	359,18
502,00	293,10
503,00	262,03
504,00	226,52
505,00	198,11
506,00	177,21
507,00	174,48
508,00	159,06
509,00	147,16
510,00	140,77
511,00	135,72
512,00	125,53
513,00	121,01
514,00	118,46
515,00	109,92
516,00	109,89
517,00	95,71
518,00	84,56
519,00	88,67
520,00	73,77
521,00	76,19
522,00	73,08
523,00	69,63
524,00	71,91
525,00	65,35
526,00	63,07
527,00	67,99
528,00	72,02
529,00	68,38
530,00	73,98
531,00	85,77
532,00	113,45
533,00	161,61
534,00	147,38
535,00	160,81
536,00	210,56
537,00	299,43
538,00	538,73
539,00	760,99
540,00	1202,10
541,00	2244,43
542,00	3740,04
543,00	3838,38
544,00	3840,11
545,00	3841,13
546,00	3833,16
547,00	3073,46
548,00	1576,15
549,00	1249,91
550,00	1047,54
551,00	888,57
552,00	801,99
553,00	604,79
554,00	393,82
555,00	242,35
556,00	160,32
557,00	136,24
558,00	96,34
559,00	74,21
560,00	64,76
561,00	63,13
562,00	53,92
563,00	61,70
564,00	38,38
565,00	37,46
566,00	30,41
567,00	30,86
568,00	30,27
569,00	40,67
570,00	32,28
571,00	33,29
572,00	37,05
573,00	47,13
574,00	53,25
575,00	54,15
576,00	207,19
577,00	275,12
578,00	295,16
579,00	391,84
580,00	371,78
581,00	330,82
582,00	338,64
583,00	442,81
584,00	474,80
585,00	389,64
586,00	434,03
587,00	557,14
588,00	486,41
589,00	424,94
590,00	344,88
591,00	308,71
592,00	339,16
593,00	361,78
594,00	269,33
595,00	187,34
596,00	163,06
597,00	154,30
598,00	208,14
599,00	274,21
600,00	254,89
601,00	196,07
602,00	136,55
603,00	120,65
604,00	118,52
605,00	142,54
606,00	173,64
607,00	230,39
608,00	347,13
609,00	656,04
610,00	1976,15
611,00	3866,15
612,00	3029,07
613,00	2051,33
614,00	1417,18
615,00	1070,13
616,00	747,00
617,00	588,11
618,00	515,28
619,00	554,72
620,00	616,12
621,00	607,30
622,00	523,61
623,00	454,57
624,00	414,77
625,00	368,21
626,00	309,50
627,00	277,02
628,00	276,30
629,00	309,27
630,00	447,75
631,00	484,80
632,00	293,10
633,00	156,75
634,00	91,26
635,00	82,45
636,00	66,98
637,00	59,02
638,00	49,90
639,00	44,00
640,00	49,28
641,00	47,46
642,00	47,47
643,00	59,97
644,00	218,72
645,00	72,24
646,00	51,79
647,00	64,69
648,00	70,69
649,00	83,98
650,00	153,59
651,00	130,97
652,00	102,13
653,00	74,59
654,00	58,70
655,00	35,52
656,00	33,97
657,00	36,10
658,00	37,90
659,00	29,96
660,00	24,01
661,00	52,38
662,00	88,90
663,00	71,44
664,00	60,34
665,00	42,58
666,00	33,90
667,00	53,93
668,00	47,47
669,00	46,04
670,00	35,99
671,00	41,68
672,00	46,65
673,00	42,78
674,00	27,09
675,00	35,74
676,00	31,80
677,00	36,45
678,00	59,22
679,00	36,27
680,00	31,00
681,00	35,59
682,00	39,36
683,00	37,66
684,00	18,80
685,00	12,00
686,00	34,05
687,00	54,82
688,00	44,26
689,00	37,38
690,00	28,25
691,00	12,67
692,00	24,78
693,00	40,74
694,00	34,91
695,00	22,97
696,00	9,99
697,00	0,87
698,00	2,96
699,00	25,76
700,00	12,84
701,00	13,64
702,00	5,16
703,00	12,17
704,00	29,08
705,00	50,63
706,00	113,37
707,00	116,14
708,00	155,71
709,00	130,02
710,00	87,13
711,00	84,02
712,00	108,75
713,00	72,19
714,00	29,78
715,00	9,44
716,00	7,59
717,00	1,61
718,00	1,07
719,00	1,33
720,00	14,95
721,00	149,61
722,00	-4,54
723,00	11,14
724,00	4,58
725,00	-2,14
726,00	4,05
727,00	-3,29
728,00	-5,41
729,00	3,52
730,00	-2,24
731,00	-5,46
732,00	9,09
733,00	-0,65
734,00	-1,96
735,00	17,62
736,00	4,02
737,00	7,96
738,00	-7,00
739,00	43,86
740,00	-1,08
741,00	5,94
742,00	6,48
743,00	3,20
744,00	-7,89
745,00	6,02
746,00	-0,51
747,00	-12,83
748,00	30,15
749,00	-2,74
750,00	1,11
751,00	3,52
752,00	-3,85
753,00	2,04
754,00	-11,13
755,00	-4,23
756,00	-2,43
757,00	-2,62
758,00	-4,26
759,00	-5,79
760,00	-3,96
761,00	2,41
762,00	-1,32
763,00	-9,67
764,00	1,11
765,00	-4,94
766,00	-7,59
767,00	-1,89
768,00	1,59
769,00	-5,79
770,00	-1,97
771,00	-0,87
772,00	-2,56
773,00	-6,26
774,00	0,40
775,00	-2,24
776,00	0,27
777,00	4,15
778,00	-4,81
779,00	-6,98
780,00	-2,08
781,00	-3,50
782,00	-8,25
783,00	-5,05
784,00	-8,03
785,00	5,96
786,00	1,42
787,00	-1,96
788,00	-11,71
789,00	-4,30
790,00	2,12
791,00	-1,30
792,00	-4,32
793,00	-2,42
794,00	-7,29
795,00	-2,56
796,00	3,60
797,00	-2,88
798,00	-1,94
799,00	-9,56
800,00	-5,14
801,00	-4,00
802,00	0,84
803,00	-4,65
804,00	2,12
805,00	17,81
806,00	5,16
807,00	-5,97
808,00	-9,82
809,00	-6,97
810,00	0,43
811,00	-10,25
812,00	-1,97
813,00	3,22
814,00	-4,32
815,00	0,34
816,00	2,12
817,00	-3,31
818,00	-6,95
819,00	-5,32
820,00	-0,55
821,00	-0,52
822,00	8,00
823,00	0,95
824,00	3,44
825,00	0,23
826,00	-0,22
827,00	-9,88
828,00	-6,26
829,00	-12,41
830,00	8,21
831,00	29,98
832,00	6,48
833,00	1,11
834,00	-5,86
835,00	3,81
836,00	-2,19
837,00	-7,49
838,00	-7,71
839,00	-0,87
840,00	0,10
841,00	5,87
842,00	-4,32
843,00	0,05
844,00	-0,10
845,00	-3,85
846,00	-3,19
847,00	2,92
848,00	0,21
849,00	-5,56
850,00	-7,29
851,00	-3,18
852,00	-2,37
853,00	0,61
854,00	-6,63
855,00	0,46
856,00	-1,28
857,00	5,24
858,00	1,04
859,00	-2,68
860,00	-5,92
861,00	3,02
862,00	7,92
863,00	-3,62
864,00	-8,69
865,00	-3,79
866,00	1,97
867,00	17,37
868,00	-6,87
869,00	3,33
870,00	-7,99
871,00	-4,87
872,00	-2,65
873,00	0,21
874,00	-5,99
875,00	-7,25
876,00	-1,56
877,00	-6,61
878,00	-3,67
879,00	1,92
880,00	9,53
881,00	-10,24
882,00	-5,18
883,00	-6,13
884,00	-2,86
885,00	-5,98
886,00	-1,76
887,00	-1,55
888,00	11,53
889,00	-8,89
890,00	0,20
891,00	4,30
892,00	1,99
893,00	-0,96
894,00	-7,68
895,00	-1,59
896,00	3,66
897,00	11,69
898,00	3,82
899,00	7,88
900,00	-6,64
901,00	-9,14
902,00	-9,01
903,00	4,52
904,00	-1,22
905,00	1,02
906,00	-4,46
907,00	-1,79
908,00	1,94
909,00	-2,60
910,00	3,45
911,00	-0,98
912,00	-3,89
913,00	0,91
914,00	-15,09
915,00	-1,98
916,00	-6,68
917,00	-4,38
918,00	-3,22
919,00	0,59
920,00	6,75
921,00	-3,62
922,00	-1,92
923,00	-5,75
924,00	3,69
925,00	-2,50
926,00	-2,42
927,00	-8,13
928,00	-4,96
929,00	5,35
930,00	-1,07
931,00	0,85
932,00	-1,85
933,00	-1,68
934,00	-7,39
935,00	-4,71
936,00	-2,87
937,00	3,57
938,00	-1,71
939,00	-5,01
940,00	7,37
941,00	-5,84
942,00	1,19
943,00	-3,88
944,00	-9,41
945,00	-8,01
946,00	7,02
947,00	4,22
948,00	-1,29
949,00	7,32
950,00	21,26
951,00	-5,51
952,00	8,22
953,00	-4,82
954,00	-8,75
955,00	-7,71
956,00	-4,30
957,00	-4,18
958,00	6,39
959,00	-7,94
960,00	-5,28
961,00	-0,25
962,00	-9,01
963,00	4,02
964,00	-6,50
965,00	3,96
966,00	2,03
967,00	-2,27
968,00	1,30
969,00	-13,92
970,00	-1,94
971,00	-1,10
972,00	-5,67
973,00	-16,56
974,00	-9,06
975,00	-7,74
976,00	1,07
977,00	-1,69
978,00	-5,20
979,00	-4,10
980,00	-4,33
981,00	1,86
982,00	-6,85
983,00	-5,97
984,00	3,72
985,00	-4,96
986,00	-11,89
987,00	-6,13
988,00	-6,39
989,00	-10,83
990,00	-6,32
991,00	20,44
992,00	3,21
993,00	1,18
994,00	0,54
995,00	-6,31
996,00	1,83
997,00	-4,10
998,00	2,88
999,00	2,68
1000,00	0,87
>>>>>End Processed Spectral Data<<<<<
