SpectraSuite Datei
++++++++++++++++++++++++++++++++++++
Datum: Mon Feb 18 16:07:26 CET 2019
Benutzer: tu65fis
Dark-Spektrum vorhanden: Ja
Referenz-Spektrum vorhanden: Ja
Zahl der probierten Teilspektren: 1
Spektrometer: USB2G47534
Integrationszeit (usec): 10000 (USB2G47534)
Spektren Durchschnitt berechnet: 1 (USB2G47534)
Boxcar Glättung: 0 (USB2G47534)
Dunkelstromkorrektur: Nein (USB2G47534)
Puls/Lampe aktiviert: Nein (USB2G47534)
Correct for Detector Non-linearity: Nein (USB2G47534)
Streulichtkorrektur: Nein (USB2G47534)
Anzahl Pixel in verarbeitetem Spektrum: 651
>>>>>Begin Processed Spectral Data<<<<<
350,00	-4,01
351,00	-0,80
352,00	-8,93
353,00	-5,67
354,00	-9,31
355,00	-7,02
356,00	-2,28
357,00	-5,14
358,00	-5,69
359,00	-4,88
360,00	-8,86
361,00	-0,85
362,00	-0,34
363,00	-4,03
364,00	4,21
365,00	-5,56
366,00	-7,47
367,00	0,15
368,00	1,69
369,00	-3,18
370,00	-2,79
371,00	-8,00
372,00	-5,45
373,00	0,42
374,00	-8,48
375,00	-6,65
376,00	0,73
377,00	0,41
378,00	-1,03
379,00	-5,44
380,00	-6,86
381,00	-5,01
382,00	-0,97
383,00	0,14
384,00	-5,00
385,00	-8,06
386,00	-5,23
387,00	0,71
388,00	-2,66
389,00	0,34
390,00	-3,84
391,00	-1,82
392,00	-1,47
393,00	-7,88
394,00	-4,76
395,00	-2,55
396,00	-3,33
397,00	2,04
398,00	-5,63
399,00	-4,34
400,00	-8,09
401,00	5,54
402,00	-7,37
403,00	-4,63
404,00	-1,91
405,00	4,25
406,00	-1,71
407,00	1,38
408,00	10,45
409,00	7,25
410,00	3,71
411,00	5,51
412,00	7,82
413,00	14,77
414,00	18,62
415,00	19,77
416,00	20,24
417,00	28,44
418,00	33,52
419,00	40,16
420,00	52,75
421,00	60,03
422,00	71,01
423,00	95,58
424,00	115,30
425,00	112,81
426,00	142,81
427,00	164,23
428,00	170,55
429,00	201,47
430,00	252,34
431,00	280,12
432,00	322,57
433,00	363,81
434,00	417,77
435,00	442,84
436,00	525,30
437,00	560,96
438,00	643,26
439,00	747,02
440,00	822,77
441,00	912,20
442,00	1009,80
443,00	1099,87
444,00	1157,93
445,00	1205,36
446,00	1115,46
447,00	1110,35
448,00	1136,34
449,00	1049,17
450,00	981,99
451,00	822,86
452,00	792,53
453,00	724,84
454,00	627,79
455,00	595,64
456,00	527,46
457,00	492,27
458,00	462,64
459,00	472,82
460,00	449,37
461,00	417,08
462,00	422,59
463,00	405,84
464,00	373,42
465,00	398,06
466,00	364,49
467,00	341,06
468,00	319,30
469,00	330,93
470,00	319,27
471,00	294,37
472,00	317,01
473,00	323,80
474,00	341,32
475,00	324,27
476,00	365,57
477,00	368,65
478,00	410,83
479,00	427,55
480,00	453,10
481,00	490,78
482,00	520,37
483,00	546,93
484,00	571,43
485,00	609,93
486,00	637,42
487,00	681,06
488,00	738,32
489,00	791,07
490,00	837,76
491,00	878,04
492,00	928,53
493,00	962,49
494,00	1018,24
495,00	1067,64
496,00	1090,83
497,00	1166,29
498,00	1199,44
499,00	1222,47
500,00	1249,09
501,00	1283,94
502,00	1311,16
503,00	1338,80
504,00	1368,99
505,00	1392,59
506,00	1411,20
507,00	1434,74
508,00	1454,92
509,00	1479,85
510,00	1461,75
511,00	1498,39
512,00	1496,70
513,00	1503,00
514,00	1523,25
515,00	1546,06
516,00	1544,49
517,00	1544,95
518,00	1567,96
519,00	1541,67
520,00	1564,99
521,00	1555,12
522,00	1561,49
523,00	1577,69
524,00	1594,21
525,00	1596,79
526,00	1585,78
527,00	1611,17
528,00	1606,40
529,00	1608,54
530,00	1618,02
531,00	1641,39
532,00	1634,18
533,00	1666,99
534,00	1665,19
535,00	1671,55
536,00	1696,84
537,00	1704,20
538,00	1701,61
539,00	1721,86
540,00	1717,33
541,00	1741,89
542,00	1747,31
543,00	1768,64
544,00	1775,12
545,00	1777,71
546,00	1804,89
547,00	1799,37
548,00	1821,88
549,00	1806,02
550,00	1816,75
551,00	1831,33
552,00	1822,39
553,00	1806,09
554,00	1825,85
555,00	1839,24
556,00	1839,23
557,00	1829,61
558,00	1840,21
559,00	1833,29
560,00	1835,54
561,00	1850,79
562,00	1856,09
563,00	1855,56
564,00	1822,40
565,00	1833,87
566,00	1820,20
567,00	1812,52
568,00	1791,43
569,00	1815,36
570,00	1803,31
571,00	1837,71
572,00	1788,20
573,00	1812,08
574,00	1807,47
575,00	1779,08
576,00	1784,15
577,00	1809,40
578,00	1796,57
579,00	1754,53
580,00	1771,89
581,00	1786,33
582,00	1766,25
583,00	1784,08
584,00	1768,08
585,00	1758,40
586,00	1769,98
587,00	1793,64
588,00	1772,87
589,00	1771,39
590,00	1788,39
591,00	1762,88
592,00	1746,07
593,00	1759,64
594,00	1771,51
595,00	1753,64
596,00	1728,75
597,00	1727,34
598,00	1764,63
599,00	1734,74
600,00	1741,04
601,00	1745,90
602,00	1721,41
603,00	1696,69
604,00	1706,16
605,00	1715,08
606,00	1691,17
607,00	1679,68
608,00	1654,01
609,00	1653,30
610,00	1613,24
611,00	1619,18
612,00	1613,66
613,00	1614,27
614,00	1558,27
615,00	1576,55
616,00	1563,92
617,00	1530,89
618,00	1489,00
619,00	1480,73
620,00	1467,54
621,00	1436,30
622,00	1422,75
623,00	1399,63
624,00	1366,65
625,00	1348,50
626,00	1310,96
627,00	1289,66
628,00	1259,91
629,00	1231,73
630,00	1216,91
631,00	1182,11
632,00	1151,66
633,00	1131,61
634,00	1116,22
635,00	1078,53
636,00	1063,00
637,00	1043,11
638,00	1016,58
639,00	997,07
640,00	968,39
641,00	930,50
642,00	916,98
643,00	890,30
644,00	872,66
645,00	855,74
646,00	839,93
647,00	811,89
648,00	789,15
649,00	770,28
650,00	748,08
651,00	729,51
652,00	712,31
653,00	677,56
654,00	673,99
655,00	654,13
656,00	640,14
657,00	629,54
658,00	616,02
659,00	601,92
660,00	563,16
661,00	562,23
662,00	546,33
663,00	528,85
664,00	516,25
665,00	496,70
666,00	481,43
667,00	458,99
668,00	451,61
669,00	416,73
670,00	423,96
671,00	416,07
672,00	389,53
673,00	386,09
674,00	369,14
675,00	365,05
676,00	343,07
677,00	330,34
678,00	319,67
679,00	307,09
680,00	295,61
681,00	295,19
682,00	283,18
683,00	276,73
684,00	258,01
685,00	254,15
686,00	241,46
687,00	244,07
688,00	220,36
689,00	218,33
690,00	218,03
691,00	191,80
692,00	192,15
693,00	186,23
694,00	176,97
695,00	166,09
696,00	166,92
697,00	152,85
698,00	157,09
699,00	145,27
700,00	149,82
701,00	140,49
702,00	136,74
703,00	124,42
704,00	123,85
705,00	122,45
706,00	109,89
707,00	107,21
708,00	102,46
709,00	104,53
710,00	104,60
711,00	93,72
712,00	91,97
713,00	80,31
714,00	83,73
715,00	86,45
716,00	82,65
717,00	73,64
718,00	74,82
719,00	70,60
720,00	73,09
721,00	56,12
722,00	52,00
723,00	55,08
724,00	61,22
725,00	49,95
726,00	54,91
727,00	49,29
728,00	50,87
729,00	53,86
730,00	48,39
731,00	38,97
732,00	45,23
733,00	35,45
734,00	35,39
735,00	55,02
736,00	23,92
737,00	41,08
738,00	35,00
739,00	27,04
740,00	31,98
741,00	31,36
742,00	32,31
743,00	24,27
744,00	25,20
745,00	26,18
746,00	21,03
747,00	20,68
748,00	21,61
749,00	14,00
750,00	15,14
751,00	16,35
752,00	21,16
753,00	13,07
754,00	11,78
755,00	8,77
756,00	14,55
757,00	9,58
758,00	9,23
759,00	13,98
760,00	2,94
761,00	16,80
762,00	6,43
763,00	-0,78
764,00	2,24
765,00	6,44
766,00	5,27
767,00	6,93
768,00	7,35
769,00	1,31
770,00	2,22
771,00	11,01
772,00	4,91
773,00	4,98
774,00	-2,93
775,00	4,26
776,00	2,87
777,00	-0,54
778,00	-0,70
779,00	-3,19
780,00	-0,49
781,00	0,61
782,00	1,68
783,00	3,55
784,00	-0,72
785,00	0,18
786,00	-1,09
787,00	-0,50
788,00	1,29
789,00	-0,02
790,00	-2,76
791,00	-2,71
792,00	1,37
793,00	-9,58
794,00	0,58
795,00	0,37
796,00	3,45
797,00	0,40
798,00	-5,70
799,00	-0,62
800,00	0,55
801,00	-4,13
802,00	-0,91
803,00	-2,67
804,00	-3,32
805,00	-2,39
806,00	7,05
807,00	-2,11
808,00	-3,74
809,00	-4,95
810,00	-2,98
811,00	-8,92
812,00	-2,16
813,00	-1,09
814,00	-4,88
815,00	2,07
816,00	2,92
817,00	-2,71
818,00	-5,34
819,00	-2,69
820,00	-4,07
821,00	-2,36
822,00	-4,01
823,00	-3,04
824,00	0,11
825,00	-3,89
826,00	-0,51
827,00	-12,39
828,00	-3,90
829,00	-1,73
830,00	-8,47
831,00	-2,34
832,00	-9,73
833,00	4,49
834,00	-6,77
835,00	-6,23
836,00	-8,25
837,00	-6,89
838,00	-6,61
839,00	-6,74
840,00	-6,40
841,00	4,63
842,00	-0,16
843,00	-2,07
844,00	-3,40
845,00	-8,36
846,00	-5,62
847,00	-3,43
848,00	-1,91
849,00	-6,12
850,00	-9,40
851,00	-5,56
852,00	-3,72
853,00	-2,18
854,00	-7,92
855,00	-2,23
856,00	-11,39
857,00	-6,69
858,00	-5,05
859,00	-6,97
860,00	-5,33
861,00	-0,50
862,00	-0,01
863,00	-1,70
864,00	-5,17
865,00	-4,75
866,00	-2,06
867,00	-4,12
868,00	-5,57
869,00	-0,30
870,00	-8,98
871,00	-16,88
872,00	-6,97
873,00	-5,28
874,00	-10,00
875,00	-3,95
876,00	-4,57
877,00	-4,22
878,00	-4,52
879,00	1,84
880,00	-9,68
881,00	-8,52
882,00	-5,67
883,00	-2,45
884,00	0,08
885,00	-3,01
886,00	-7,90
887,00	-6,51
888,00	-7,06
889,00	-1,95
890,00	1,47
891,00	-9,23
892,00	-5,01
893,00	-5,75
894,00	-5,42
895,00	-6,18
896,00	0,82
897,00	-2,30
898,00	-0,96
899,00	-1,08
900,00	-6,71
901,00	-7,61
902,00	-7,28
903,00	0,84
904,00	-1,80
905,00	-4,10
906,00	-4,59
907,00	-7,96
908,00	-7,98
909,00	-4,81
910,00	-6,38
911,00	-6,00
912,00	-3,28
913,00	-7,23
914,00	-16,98
915,00	-4,88
916,00	-2,26
917,00	-5,00
918,00	-6,03
919,00	-0,72
920,00	-5,15
921,00	-7,43
922,00	-5,88
923,00	-3,37
924,00	-8,60
925,00	-8,69
926,00	0,70
927,00	-9,40
928,00	-8,98
929,00	-10,48
930,00	-4,71
931,00	-4,13
932,00	-8,90
933,00	-6,01
934,00	-7,87
935,00	-13,26
936,00	-2,68
937,00	-5,00
938,00	-4,81
939,00	-3,35
940,00	-12,43
941,00	-0,17
942,00	-0,17
943,00	-2,68
944,00	-10,14
945,00	-10,02
946,00	6,91
947,00	-2,43
948,00	-11,39
949,00	0,83
950,00	-7,01
951,00	-3,02
952,00	7,37
953,00	-2,63
954,00	0,60
955,00	-10,75
956,00	-6,81
957,00	-3,70
958,00	-8,66
959,00	-8,44
960,00	-7,50
961,00	-12,31
962,00	-10,01
963,00	2,91
964,00	-6,84
965,00	-4,22
966,00	-2,46
967,00	-9,52
968,00	-2,21
969,00	-7,48
970,00	-4,49
971,00	-4,09
972,00	-2,63
973,00	-16,34
974,00	-8,96
975,00	2,31
976,00	-2,63
977,00	-5,99
978,00	-8,90
979,00	-3,07
980,00	-7,39
981,00	-2,03
982,00	-7,58
983,00	-6,94
984,00	-2,65
985,00	-1,98
986,00	-10,73
987,00	-13,21
988,00	-6,82
989,00	-15,64
990,00	-7,59
991,00	-5,93
992,00	1,69
993,00	-11,23
994,00	-6,32
995,00	-5,83
996,00	-4,74
997,00	-9,52
998,00	-9,80
999,00	-8,21
1000,00	-1,22
>>>>>End Processed Spectral Data<<<<<
