SpectraSuite Datei
++++++++++++++++++++++++++++++++++++
Datum: Mon Feb 18 16:20:38 CET 2019
Benutzer: tu65fis
Dark-Spektrum vorhanden: Ja
Referenz-Spektrum vorhanden: Ja
Zahl der probierten Teilspektren: 1
Spektrometer: USB2G47534
Integrationszeit (usec): 20000 (USB2G47534)
Spektren Durchschnitt berechnet: 1 (USB2G47534)
Boxcar Glättung: 0 (USB2G47534)
Dunkelstromkorrektur: Nein (USB2G47534)
Puls/Lampe aktiviert: Nein (USB2G47534)
Correct for Detector Non-linearity: Nein (USB2G47534)
Streulichtkorrektur: Nein (USB2G47534)
Anzahl Pixel in verarbeitetem Spektrum: 651
>>>>>Begin Processed Spectral Data<<<<<
350,00	-3,00
351,00	-10,37
352,00	-9,29
353,00	-7,43
354,00	-5,70
355,00	-14,11
356,00	-4,74
357,00	-2,42
358,00	-9,20
359,00	-8,64
360,00	-9,48
361,00	-7,64
362,00	-2,60
363,00	-10,00
364,00	1,53
365,00	-9,61
366,00	-2,89
367,00	-7,24
368,00	-2,81
369,00	-8,52
370,00	-3,84
371,00	-7,98
372,00	-11,18
373,00	-9,65
374,00	-8,23
375,00	-5,31
376,00	-4,65
377,00	-6,74
378,00	0,10
379,00	-4,30
380,00	-12,85
381,00	-5,55
382,00	0,06
383,00	0,94
384,00	-3,74
385,00	-12,61
386,00	-12,19
387,00	-6,88
388,00	-7,21
389,00	-2,14
390,00	-7,00
391,00	-4,65
392,00	-5,98
393,00	-7,11
394,00	-6,75
395,00	-8,26
396,00	-3,21
397,00	0,74
398,00	-8,06
399,00	-5,10
400,00	-12,40
401,00	2,88
402,00	-16,14
403,00	-4,90
404,00	-1,88
405,00	-4,47
406,00	-4,77
407,00	-8,04
408,00	-2,07
409,00	-0,09
410,00	-1,73
411,00	-3,54
412,00	-6,56
413,00	-1,87
414,00	-11,14
415,00	-7,94
416,00	-7,46
417,00	-5,62
418,00	-0,31
419,00	-6,10
420,00	-2,83
421,00	-16,66
422,00	-7,67
423,00	-1,21
424,00	10,42
425,00	-5,91
426,00	-4,65
427,00	-10,55
428,00	-5,06
429,00	0,96
430,00	-1,50
431,00	1,75
432,00	1,12
433,00	-2,31
434,00	3,25
435,00	1,40
436,00	-1,19
437,00	2,11
438,00	-1,11
439,00	-5,29
440,00	-1,33
441,00	-4,87
442,00	-2,10
443,00	-9,01
444,00	-1,66
445,00	-10,50
446,00	-9,52
447,00	-5,63
448,00	-4,88
449,00	-0,97
450,00	-3,22
451,00	-1,35
452,00	-2,10
453,00	-4,11
454,00	-0,08
455,00	1,87
456,00	-1,60
457,00	-6,39
458,00	-2,29
459,00	-4,94
460,00	-4,46
461,00	-10,95
462,00	-3,45
463,00	-6,54
464,00	-0,25
465,00	-0,64
466,00	4,18
467,00	-10,70
468,00	-6,26
469,00	2,72
470,00	5,50
471,00	-5,37
472,00	-9,07
473,00	-5,55
474,00	-1,29
475,00	-6,89
476,00	3,38
477,00	-5,21
478,00	2,75
479,00	-1,72
480,00	-1,22
481,00	0,89
482,00	-1,94
483,00	-5,21
484,00	-2,86
485,00	-0,29
486,00	3,07
487,00	3,92
488,00	4,10
489,00	-5,68
490,00	6,60
491,00	-2,16
492,00	3,03
493,00	-0,96
494,00	2,56
495,00	-0,07
496,00	-1,13
497,00	2,07
498,00	-0,82
499,00	3,83
500,00	1,22
501,00	-2,05
502,00	6,21
503,00	4,41
504,00	2,78
505,00	4,01
506,00	1,08
507,00	6,27
508,00	-1,98
509,00	-8,04
510,00	-1,75
511,00	2,95
512,00	5,00
513,00	1,01
514,00	2,28
515,00	6,89
516,00	16,09
517,00	2,21
518,00	2,08
519,00	8,02
520,00	6,08
521,00	11,75
522,00	19,38
523,00	14,35
524,00	12,60
525,00	17,29
526,00	16,55
527,00	22,53
528,00	58,16
529,00	47,54
530,00	126,71
531,00	3411,88
532,00	3848,85
533,00	3141,56
534,00	1041,20
535,00	99,26
536,00	34,17
537,00	25,06
538,00	22,31
539,00	15,91
540,00	17,29
541,00	26,77
542,00	31,55
543,00	30,59
544,00	33,13
545,00	32,14
546,00	32,71
547,00	20,60
548,00	16,67
549,00	9,05
550,00	11,53
551,00	2,94
552,00	3,04
553,00	0,12
554,00	1,46
555,00	2,08
556,00	-5,38
557,00	3,55
558,00	1,32
559,00	-0,84
560,00	-3,52
561,00	-3,12
562,00	-1,77
563,00	6,77
564,00	-7,89
565,00	-8,05
566,00	-5,84
567,00	2,86
568,00	-1,12
569,00	-0,96
570,00	1,64
571,00	-0,33
572,00	-3,33
573,00	-3,02
574,00	-6,89
575,00	-5,56
576,00	-0,97
577,00	0,09
578,00	-4,53
579,00	-0,85
580,00	-0,04
581,00	-6,78
582,00	-2,96
583,00	-11,45
584,00	-2,18
585,00	3,13
586,00	10,00
587,00	5,52
588,00	-4,59
589,00	11,12
590,00	1,46
591,00	-0,78
592,00	1,12
593,00	2,37
594,00	1,55
595,00	-5,83
596,00	-3,27
597,00	-0,90
598,00	3,77
599,00	-6,12
600,00	1,37
601,00	-4,83
602,00	-5,94
603,00	-7,03
604,00	-5,83
605,00	-2,59
606,00	-2,84
607,00	-4,89
608,00	-0,75
609,00	-1,97
610,00	0,60
611,00	16,60
612,00	17,52
613,00	15,77
614,00	0,82
615,00	1,80
616,00	-0,73
617,00	-4,34
618,00	-3,04
619,00	-6,29
620,00	-6,06
621,00	0,10
622,00	2,28
623,00	-5,09
624,00	0,55
625,00	-5,26
626,00	4,05
627,00	-6,01
628,00	7,94
629,00	1,98
630,00	1,61
631,00	-2,38
632,00	-1,73
633,00	-1,37
634,00	-3,95
635,00	-4,22
636,00	-6,74
637,00	1,04
638,00	-7,81
639,00	-2,46
640,00	0,84
641,00	-1,00
642,00	-6,99
643,00	-4,85
644,00	-0,77
645,00	-5,30
646,00	-5,55
647,00	-2,61
648,00	3,73
649,00	-2,95
650,00	-1,29
651,00	-4,37
652,00	-7,37
653,00	-9,01
654,00	-6,84
655,00	-10,62
656,00	1,91
657,00	-3,25
658,00	-1,94
659,00	-1,96
660,00	-3,41
661,00	-4,60
662,00	-0,31
663,00	-2,56
664,00	-1,15
665,00	1,35
666,00	-6,09
667,00	-3,26
668,00	0,32
669,00	-3,29
670,00	-1,66
671,00	-0,23
672,00	-7,24
673,00	4,85
674,00	-3,95
675,00	1,59
676,00	1,24
677,00	-1,92
678,00	-3,71
679,00	-10,04
680,00	-9,56
681,00	-2,73
682,00	-0,75
683,00	-5,07
684,00	-5,34
685,00	-9,56
686,00	-5,23
687,00	-2,57
688,00	-10,69
689,00	-3,25
690,00	-6,38
691,00	-11,20
692,00	-4,28
693,00	-1,99
694,00	-2,06
695,00	-9,17
696,00	-3,02
697,00	-10,17
698,00	-3,17
699,00	-6,23
700,00	-1,07
701,00	2,57
702,00	-8,21
703,00	-8,83
704,00	-7,73
705,00	-5,49
706,00	2,01
707,00	-1,09
708,00	0,41
709,00	-3,38
710,00	4,04
711,00	-4,12
712,00	-5,12
713,00	-2,22
714,00	1,35
715,00	-2,95
716,00	5,64
717,00	-7,98
718,00	-2,60
719,00	-7,17
720,00	-3,83
721,00	-7,97
722,00	0,29
723,00	-4,19
724,00	1,09
725,00	-5,71
726,00	-2,97
727,00	-9,17
728,00	-0,14
729,00	-1,45
730,00	-5,62
731,00	-7,27
732,00	-3,40
733,00	-5,01
734,00	-7,75
735,00	8,48
736,00	-5,47
737,00	-2,99
738,00	-7,01
739,00	0,13
740,00	-3,89
741,00	2,00
742,00	1,95
743,00	-5,09
744,00	-6,83
745,00	-0,28
746,00	-8,11
747,00	-4,44
748,00	-4,36
749,00	-5,57
750,00	-8,27
751,00	-7,17
752,00	-2,65
753,00	-1,98
754,00	-7,86
755,00	-9,44
756,00	-3,30
757,00	-12,44
758,00	-3,99
759,00	0,95
760,00	-5,99
761,00	-1,90
762,00	-4,74
763,00	-9,73
764,00	2,37
765,00	-6,75
766,00	-8,67
767,00	3,77
768,00	-4,12
769,00	-7,30
770,00	-5,54
771,00	-2,50
772,00	-4,44
773,00	-2,01
774,00	-7,68
775,00	-9,26
776,00	-7,46
777,00	-2,59
778,00	-7,86
779,00	-9,02
780,00	-2,17
781,00	-7,61
782,00	-2,93
783,00	-3,23
784,00	-9,81
785,00	-0,07
786,00	-0,09
787,00	-6,15
788,00	-3,76
789,00	-0,97
790,00	-0,88
791,00	-9,82
792,00	-5,85
793,00	-7,89
794,00	-4,11
795,00	-5,99
796,00	3,56
797,00	-5,97
798,00	-4,88
799,00	-2,60
800,00	-4,35
801,00	-7,67
802,00	-1,22
803,00	-5,35
804,00	-5,50
805,00	-1,05
806,00	2,09
807,00	-3,51
808,00	-2,64
809,00	-5,93
810,00	-7,03
811,00	-9,19
812,00	-3,82
813,00	-3,25
814,00	-5,45
815,00	-0,24
816,00	-3,91
817,00	-6,59
818,00	-10,54
819,00	-3,14
820,00	-8,50
821,00	-1,38
822,00	-5,00
823,00	-4,06
824,00	-3,77
825,00	-3,88
826,00	-6,62
827,00	-14,84
828,00	-3,03
829,00	-6,77
830,00	-11,09
831,00	2,94
832,00	-4,96
833,00	-1,59
834,00	-5,72
835,00	-2,64
836,00	-1,50
837,00	-8,19
838,00	-7,10
839,00	-6,10
840,00	-4,01
841,00	7,69
842,00	-0,41
843,00	-0,56
844,00	-2,19
845,00	-7,28
846,00	-6,48
847,00	-6,78
848,00	-6,69
849,00	-13,86
850,00	-2,43
851,00	-7,71
852,00	-4,81
853,00	2,35
854,00	-7,84
855,00	-1,63
856,00	-4,36
857,00	1,80
858,00	-4,63
859,00	-6,42
860,00	-3,43
861,00	-3,57
862,00	-4,01
863,00	-6,17
864,00	-0,87
865,00	-9,89
866,00	-0,07
867,00	-5,63
868,00	-8,55
869,00	-4,46
870,00	-14,00
871,00	-7,66
872,00	-3,45
873,00	-2,93
874,00	-11,00
875,00	-7,00
876,00	-1,55
877,00	-2,09
878,00	-6,87
879,00	-5,04
880,00	-8,06
881,00	-4,45
882,00	-7,61
883,00	-2,58
884,00	-4,52
885,00	-7,04
886,00	-6,78
887,00	-10,00
888,00	-4,51
889,00	-4,70
890,00	-0,42
891,00	-12,11
892,00	-3,05
893,00	-9,90
894,00	-5,91
895,00	-6,67
896,00	-6,33
897,00	-6,45
898,00	-2,50
899,00	0,85
900,00	-10,67
901,00	-6,83
902,00	-5,95
903,00	1,05
904,00	-0,38
905,00	-2,18
906,00	-5,34
907,00	-9,90
908,00	-1,00
909,00	-7,66
910,00	-3,04
911,00	-1,98
912,00	-0,95
913,00	-10,01
914,00	-12,99
915,00	-0,60
916,00	-2,90
917,00	-6,93
918,00	-6,32
919,00	0,51
920,00	6,83
921,00	-4,68
922,00	-1,30
923,00	-1,80
924,00	-9,61
925,00	-2,12
926,00	6,97
927,00	-7,10
928,00	-3,93
929,00	-10,07
930,00	-1,67
931,00	-3,11
932,00	-11,00
933,00	-4,33
934,00	-4,13
935,00	-3,13
936,00	-3,07
937,00	0,43
938,00	-1,39
939,00	-5,62
940,00	-8,65
941,00	2,11
942,00	-2,66
943,00	-4,21
944,00	-6,74
945,00	-8,05
946,00	10,00
947,00	-2,73
948,00	-4,35
949,00	-0,63
950,00	-6,15
951,00	-6,60
952,00	2,16
953,00	-4,74
954,00	-2,17
955,00	-12,43
956,00	2,11
957,00	-0,55
958,00	-11,44
959,00	-2,78
960,00	-3,09
961,00	-9,06
962,00	-8,05
963,00	-1,71
964,00	-4,09
965,00	0,47
966,00	-1,90
967,00	-1,25
968,00	-2,78
969,00	-9,30
970,00	-5,15
971,00	-2,61
972,00	-4,72
973,00	-16,86
974,00	0,39
975,00	-2,90
976,00	-3,65
977,00	-7,93
978,00	-3,38
979,00	-0,04
980,00	-1,02
981,00	-7,02
982,00	-8,43
983,00	-7,86
984,00	-5,98
985,00	-6,21
986,00	-5,23
987,00	-12,24
988,00	-8,64
989,00	-12,79
990,00	-7,09
991,00	-2,64
992,00	-4,18
993,00	-3,39
994,00	-8,65
995,00	1,75
996,00	-0,08
997,00	-7,73
998,00	-5,82
999,00	-0,29
1000,00	-0,97
>>>>>End Processed Spectral Data<<<<<
