SpectraSuite Datei
++++++++++++++++++++++++++++++++++++
Datum: Mon Feb 18 16:19:51 CET 2019
Benutzer: tu65fis
Dark-Spektrum vorhanden: Ja
Referenz-Spektrum vorhanden: Ja
Zahl der probierten Teilspektren: 1
Spektrometer: USB2G47534
Integrationszeit (usec): 100000 (USB2G47534)
Spektren Durchschnitt berechnet: 1 (USB2G47534)
Boxcar Glättung: 0 (USB2G47534)
Dunkelstromkorrektur: Nein (USB2G47534)
Puls/Lampe aktiviert: Nein (USB2G47534)
Correct for Detector Non-linearity: Nein (USB2G47534)
Streulichtkorrektur: Nein (USB2G47534)
Anzahl Pixel in verarbeitetem Spektrum: 651
>>>>>Begin Processed Spectral Data<<<<<
350,00	-6,98
351,00	-2,47
352,00	-4,00
353,00	-10,90
354,00	-7,97
355,00	-6,08
356,00	-4,10
357,00	3,07
358,00	-10,38
359,00	-8,52
360,00	-9,49
361,00	-8,44
362,00	-1,90
363,00	-6,05
364,00	2,38
365,00	-6,66
366,00	-2,58
367,00	-1,49
368,00	0,86
369,00	-0,89
370,00	-4,92
371,00	-0,00
372,00	-2,67
373,00	-5,40
374,00	-6,26
375,00	4,01
376,00	-1,18
377,00	-1,07
378,00	2,47
379,00	-9,38
380,00	-6,01
381,00	-5,72
382,00	10,04
383,00	3,37
384,00	-8,93
385,00	-5,19
386,00	-4,50
387,00	-6,98
388,00	-10,94
389,00	-1,72
390,00	-2,63
391,00	-6,26
392,00	-2,07
393,00	-10,89
394,00	-6,98
395,00	-6,29
396,00	-0,26
397,00	-4,28
398,00	-8,69
399,00	-11,69
400,00	-7,53
401,00	0,14
402,00	-6,66
403,00	-7,76
404,00	-3,60
405,00	-2,14
406,00	-8,88
407,00	-1,86
408,00	-2,54
409,00	-0,30
410,00	-6,45
411,00	-6,72
412,00	-2,00
413,00	3,99
414,00	-2,88
415,00	-5,08
416,00	-3,08
417,00	-5,23
418,00	4,47
419,00	-5,91
420,00	-4,53
421,00	-9,38
422,00	-6,20
423,00	-2,90
424,00	10,16
425,00	1,83
426,00	-5,39
427,00	0,50
428,00	-5,92
429,00	-2,08
430,00	1,93
431,00	3,01
432,00	-1,12
433,00	-0,05
434,00	7,14
435,00	35,02
436,00	29,41
437,00	13,42
438,00	-4,88
439,00	-3,90
440,00	2,53
441,00	2,77
442,00	-0,62
443,00	1,74
444,00	2,08
445,00	-3,12
446,00	-3,75
447,00	2,48
448,00	3,89
449,00	4,99
450,00	-0,24
451,00	5,47
452,00	2,69
453,00	-2,44
454,00	7,72
455,00	3,17
456,00	0,44
457,00	-0,09
458,00	-6,17
459,00	-3,88
460,00	-1,80
461,00	-0,02
462,00	2,86
463,00	-2,58
464,00	-1,10
465,00	6,77
466,00	3,20
467,00	-6,69
468,00	-0,10
469,00	4,78
470,00	6,02
471,00	-2,05
472,00	-3,78
473,00	0,41
474,00	4,99
475,00	-0,33
476,00	2,67
477,00	-2,73
478,00	7,45
479,00	0,30
480,00	3,28
481,00	5,12
482,00	5,00
483,00	2,82
484,00	8,23
485,00	13,46
486,00	26,73
487,00	20,75
488,00	23,08
489,00	17,75
490,00	22,54
491,00	18,47
492,00	17,77
493,00	11,73
494,00	11,15
495,00	10,29
496,00	7,12
497,00	5,08
498,00	10,68
499,00	14,04
500,00	-0,79
501,00	6,99
502,00	3,76
503,00	1,00
504,00	0,92
505,00	1,06
506,00	-3,52
507,00	-2,20
508,00	-2,91
509,00	-5,03
510,00	-2,36
511,00	-2,06
512,00	0,14
513,00	0,00
514,00	-5,52
515,00	-1,70
516,00	-3,17
517,00	-3,82
518,00	-7,19
519,00	-5,98
520,00	-11,66
521,00	-8,47
522,00	-0,60
523,00	-7,03
524,00	3,18
525,00	-0,21
526,00	-3,01
527,00	-5,75
528,00	1,80
529,00	-2,24
530,00	-0,02
531,00	1,02
532,00	0,56
533,00	-1,35
534,00	-4,70
535,00	3,17
536,00	2,20
537,00	5,16
538,00	13,61
539,00	7,85
540,00	33,81
541,00	55,51
542,00	87,45
543,00	110,25
544,00	116,51
545,00	124,04
546,00	117,73
547,00	63,55
548,00	43,84
549,00	39,27
550,00	25,23
551,00	21,54
552,00	15,25
553,00	14,12
554,00	16,46
555,00	1,81
556,00	-0,14
557,00	3,28
558,00	-2,98
559,00	-6,99
560,00	-9,15
561,00	-5,45
562,00	-0,07
563,00	-4,26
564,00	-4,87
565,00	-7,63
566,00	-7,72
567,00	-3,81
568,00	-6,66
569,00	0,07
570,00	1,09
571,00	-3,73
572,00	0,22
573,00	-2,73
574,00	-5,08
575,00	-8,91
576,00	3,83
577,00	2,40
578,00	6,18
579,00	5,86
580,00	10,97
581,00	12,13
582,00	7,94
583,00	15,68
584,00	14,03
585,00	13,63
586,00	22,00
587,00	22,93
588,00	18,80
589,00	20,50
590,00	15,30
591,00	4,45
592,00	13,93
593,00	11,14
594,00	9,52
595,00	0,77
596,00	4,26
597,00	6,55
598,00	-0,75
599,00	3,74
600,00	11,80
601,00	5,42
602,00	10,35
603,00	-1,57
604,00	0,89
605,00	4,19
606,00	6,17
607,00	6,03
608,00	11,05
609,00	19,95
610,00	60,79
611,00	122,55
612,00	95,89
613,00	65,60
614,00	37,51
615,00	38,22
616,00	19,04
617,00	14,93
618,00	6,53
619,00	14,48
620,00	16,01
621,00	23,51
622,00	19,97
623,00	20,22
624,00	19,10
625,00	14,96
626,00	16,87
627,00	17,45
628,00	23,86
629,00	24,64
630,00	39,98
631,00	39,60
632,00	53,13
633,00	74,52
634,00	376,40
635,00	2685,89
636,00	2412,22
637,00	1060,23
638,00	283,33
639,00	62,85
640,00	29,31
641,00	11,96
642,00	10,60
643,00	16,82
644,00	44,08
645,00	10,21
646,00	3,49
647,00	7,45
648,00	12,56
649,00	9,38
650,00	5,14
651,00	11,21
652,00	7,65
653,00	2,54
654,00	1,34
655,00	-3,58
656,00	4,69
657,00	1,33
658,00	4,25
659,00	1,01
660,00	2,07
661,00	4,15
662,00	1,53
663,00	-2,03
664,00	6,72
665,00	1,13
666,00	0,07
667,00	1,51
668,00	-0,48
669,00	-2,99
670,00	-3,67
671,00	-2,88
672,00	-0,83
673,00	1,83
674,00	-3,01
675,00	-1,41
676,00	3,37
677,00	-1,48
678,00	2,41
679,00	-8,07
680,00	-0,74
681,00	-4,43
682,00	-2,44
683,00	0,64
684,00	-6,39
685,00	-6,53
686,00	-0,34
687,00	-0,25
688,00	-9,67
689,00	-1,39
690,00	-3,70
691,00	-4,64
692,00	-3,83
693,00	-3,10
694,00	2,71
695,00	-9,84
696,00	-1,98
697,00	-6,05
698,00	0,12
699,00	1,22
700,00	0,62
701,00	6,55
702,00	-4,32
703,00	-6,03
704,00	-1,86
705,00	-3,57
706,00	1,53
707,00	2,53
708,00	2,51
709,00	-2,59
710,00	4,15
711,00	-2,19
712,00	1,10
713,00	0,57
714,00	-1,72
715,00	1,61
716,00	4,23
717,00	-3,05
718,00	1,30
719,00	-2,77
720,00	-0,41
721,00	18,00
722,00	-10,11
723,00	-4,38
724,00	-0,53
725,00	-4,24
726,00	-0,90
727,00	-4,01
728,00	-5,40
729,00	0,04
730,00	-5,56
731,00	-4,31
732,00	-1,48
733,00	-4,11
734,00	-9,22
735,00	14,59
736,00	-5,54
737,00	-2,94
738,00	-6,00
739,00	8,07
740,00	-6,06
741,00	0,18
742,00	-1,44
743,00	-8,85
744,00	-3,51
745,00	-4,56
746,00	-7,24
747,00	-1,23
748,00	3,40
749,00	-2,56
750,00	-6,36
751,00	-3,23
752,00	-3,82
753,00	-2,29
754,00	-11,11
755,00	-16,92
756,00	-5,63
757,00	-3,76
758,00	-2,57
759,00	0,97
760,00	-0,11
761,00	7,78
762,00	-11,87
763,00	-11,66
764,00	2,12
765,00	-7,04
766,00	-8,24
767,00	1,04
768,00	-0,76
769,00	-10,60
770,00	-7,34
771,00	-3,37
772,00	-3,82
773,00	-4,08
774,00	-4,71
775,00	-3,11
776,00	2,03
777,00	1,76
778,00	-6,45
779,00	-9,94
780,00	-2,35
781,00	-3,70
782,00	-4,76
783,00	2,03
784,00	-9,82
785,00	0,97
786,00	-3,35
787,00	-6,84
788,00	-3,40
789,00	-0,31
790,00	-3,01
791,00	-4,12
792,00	-5,70
793,00	-5,97
794,00	-6,10
795,00	-3,68
796,00	-0,35
797,00	-1,08
798,00	-2,94
799,00	-5,54
800,00	-3,37
801,00	-1,88
802,00	1,17
803,00	-2,94
804,00	-4,99
805,00	-0,12
806,00	5,83
807,00	-1,86
808,00	-7,66
809,00	-6,97
810,00	-6,21
811,00	-10,18
812,00	-2,59
813,00	-6,45
814,00	3,38
815,00	-5,58
816,00	0,16
817,00	-3,92
818,00	-1,50
819,00	-3,67
820,00	-7,41
821,00	-3,12
822,00	-4,01
823,00	0,28
824,00	-4,06
825,00	-3,71
826,00	-2,26
827,00	-11,99
828,00	-3,07
829,00	-9,23
830,00	-4,11
831,00	9,42
832,00	-8,00
833,00	-5,52
834,00	-5,61
835,00	-5,22
836,00	-5,57
837,00	-7,44
838,00	-14,28
839,00	-7,16
840,00	-4,11
841,00	7,49
842,00	-2,98
843,00	-2,37
844,00	-4,98
845,00	-9,64
846,00	-4,62
847,00	-2,54
848,00	-4,21
849,00	-8,42
850,00	-11,04
851,00	-4,60
852,00	-4,95
853,00	-0,49
854,00	-7,75
855,00	-1,90
856,00	-3,83
857,00	1,97
858,00	-1,80
859,00	-6,59
860,00	-9,50
861,00	-1,82
862,00	-1,96
863,00	-5,64
864,00	-10,72
865,00	-6,94
866,00	-2,14
867,00	-2,59
868,00	-3,22
869,00	-1,25
870,00	-3,92
871,00	-9,11
872,00	-6,07
873,00	-1,92
874,00	-6,01
875,00	-0,74
876,00	-5,72
877,00	-3,73
878,00	-2,75
879,00	-0,75
880,00	1,17
881,00	-10,26
882,00	-6,49
883,00	-3,52
884,00	-0,76
885,00	-2,95
886,00	-1,38
887,00	-5,42
888,00	-2,15
889,00	-10,98
890,00	-4,06
891,00	-7,28
892,00	-0,01
893,00	-4,83
894,00	-2,38
895,00	-3,49
896,00	-0,40
897,00	-0,13
898,00	0,32
899,00	6,54
900,00	-8,42
901,00	-7,26
902,00	-8,89
903,00	0,05
904,00	1,42
905,00	-3,11
906,00	2,14
907,00	-6,79
908,00	-6,00
909,00	-5,19
910,00	-0,92
911,00	-6,01
912,00	-0,42
913,00	-5,94
914,00	-14,05
915,00	-0,18
916,00	-4,39
917,00	-7,20
918,00	-6,45
919,00	-0,06
920,00	3,67
921,00	-1,78
922,00	2,86
923,00	-3,26
924,00	-5,19
925,00	-2,65
926,00	-0,16
927,00	-5,37
928,00	4,02
929,00	-6,50
930,00	-4,30
931,00	-6,56
932,00	-6,21
933,00	-1,03
934,00	-5,38
935,00	-8,40
936,00	-8,93
937,00	1,01
938,00	0,28
939,00	-8,61
940,00	-3,82
941,00	-1,08
942,00	-0,12
943,00	-5,99
944,00	-9,61
945,00	-9,93
946,00	8,92
947,00	-2,19
948,00	-3,21
949,00	2,00
950,00	2,80
951,00	-3,22
952,00	8,46
953,00	-6,72
954,00	-5,75
955,00	-4,29
956,00	0,50
957,00	0,51
958,00	-3,96
959,00	-7,33
960,00	-3,01
961,00	-5,31
962,00	-6,05
963,00	1,01
964,00	-9,33
965,00	-1,04
966,00	0,81
967,00	-3,33
968,00	-1,54
969,00	-12,74
970,00	-3,71
971,00	-1,26
972,00	-5,44
973,00	-15,65
974,00	-6,20
975,00	-3,82
976,00	-4,86
977,00	-5,73
978,00	-1,72
979,00	-2,27
980,00	-1,24
981,00	0,99
982,00	-9,75
983,00	-6,93
984,00	-2,46
985,00	-2,93
986,00	-3,36
987,00	-4,79
988,00	-7,42
989,00	-12,95
990,00	-7,37
991,00	1,23
992,00	-1,17
993,00	-6,67
994,00	0,35
995,00	-4,90
996,00	2,01
997,00	-4,59
998,00	-2,94
999,00	-11,21
1000,00	5,00
>>>>>End Processed Spectral Data<<<<<
