SpectraSuite Datei
++++++++++++++++++++++++++++++++++++
Datum: Mon Feb 18 16:03:06 CET 2019
Benutzer: tu65fis
Dark-Spektrum vorhanden: Ja
Referenz-Spektrum vorhanden: Ja
Zahl der probierten Teilspektren: 1
Spektrometer: USB2G47534
Integrationszeit (usec): 500000 (USB2G47534)
Spektren Durchschnitt berechnet: 1 (USB2G47534)
Boxcar Glättung: 0 (USB2G47534)
Dunkelstromkorrektur: Nein (USB2G47534)
Puls/Lampe aktiviert: Nein (USB2G47534)
Correct for Detector Non-linearity: Nein (USB2G47534)
Streulichtkorrektur: Nein (USB2G47534)
Anzahl Pixel in verarbeitetem Spektrum: 651
>>>>>Begin Processed Spectral Data<<<<<
350,00	-1,93
351,00	-0,67
352,00	-9,59
353,00	-12,55
354,00	-9,95
355,00	-4,90
356,00	-2,41
357,00	5,09
358,00	-12,07
359,00	-7,57
360,00	-8,71
361,00	-5,38
362,00	-1,21
363,00	-9,95
364,00	-1,10
365,00	-4,97
366,00	-6,65
367,00	-1,10
368,00	1,25
369,00	-4,19
370,00	-3,53
371,00	1,04
372,00	1,06
373,00	-6,12
374,00	-5,88
375,00	11,18
376,00	1,13
377,00	-2,48
378,00	9,95
379,00	-3,24
380,00	-4,36
381,00	-2,91
382,00	73,13
383,00	0,70
384,00	-9,38
385,00	-7,73
386,00	-10,64
387,00	-6,11
388,00	-9,42
389,00	-1,88
390,00	-4,06
391,00	-3,49
392,00	7,97
393,00	-10,86
394,00	-12,72
395,00	-6,40
396,00	1,49
397,00	-2,79
398,00	-7,09
399,00	-0,84
400,00	-8,99
401,00	-0,97
402,00	-10,00
403,00	-5,51
404,00	3,09
405,00	5,68
406,00	-7,60
407,00	-0,07
408,00	-3,43
409,00	1,62
410,00	-0,68
411,00	-1,15
412,00	-5,99
413,00	10,17
414,00	-2,42
415,00	-0,64
416,00	0,34
417,00	9,44
418,00	-0,44
419,00	-1,76
420,00	-4,83
421,00	-2,28
422,00	1,32
423,00	-2,55
424,00	10,63
425,00	3,58
426,00	3,65
427,00	8,69
428,00	-7,92
429,00	-2,16
430,00	5,44
431,00	3,83
432,00	4,97
433,00	-1,78
434,00	13,60
435,00	37,97
436,00	43,43
437,00	17,11
438,00	0,91
439,00	1,66
440,00	4,68
441,00	17,86
442,00	0,60
443,00	-4,93
444,00	-2,29
445,00	-0,68
446,00	2,09
447,00	0,91
448,00	7,08
449,00	7,43
450,00	10,47
451,00	28,39
452,00	0,74
453,00	5,78
454,00	17,85
455,00	7,94
456,00	7,18
457,00	2,61
458,00	3,39
459,00	0,76
460,00	-2,39
461,00	-2,96
462,00	-2,06
463,00	-2,29
464,00	0,84
465,00	4,81
466,00	3,80
467,00	-6,00
468,00	-1,39
469,00	10,59
470,00	12,85
471,00	-2,77
472,00	3,62
473,00	14,82
474,00	0,85
475,00	-5,19
476,00	3,19
477,00	5,47
478,00	6,02
479,00	-0,24
480,00	8,07
481,00	5,56
482,00	4,83
483,00	12,15
484,00	11,71
485,00	22,14
486,00	33,01
487,00	33,25
488,00	20,36
489,00	13,93
490,00	23,08
491,00	17,63
492,00	21,34
493,00	13,66
494,00	15,30
495,00	9,23
496,00	12,40
497,00	9,08
498,00	4,47
499,00	16,72
500,00	0,13
501,00	0,97
502,00	8,64
503,00	7,64
504,00	8,02
505,00	-5,07
506,00	-3,30
507,00	-3,24
508,00	-9,46
509,00	-3,86
510,00	-3,15
511,00	-4,15
512,00	5,83
513,00	-1,00
514,00	-0,68
515,00	-5,60
516,00	5,66
517,00	-2,87
518,00	-4,82
519,00	-2,87
520,00	-9,66
521,00	-2,81
522,00	-1,99
523,00	-4,38
524,00	3,97
525,00	-1,78
526,00	-3,57
527,00	2,59
528,00	-1,24
529,00	-5,00
530,00	-3,01
531,00	0,87
532,00	7,90
533,00	6,63
534,00	-4,61
535,00	1,94
536,00	1,67
537,00	11,66
538,00	33,72
539,00	15,88
540,00	39,16
541,00	57,67
542,00	104,80
543,00	121,15
544,00	127,60
545,00	142,87
546,00	129,33
547,00	71,38
548,00	48,65
549,00	42,39
550,00	28,06
551,00	21,25
552,00	23,34
553,00	22,94
554,00	12,03
555,00	3,03
556,00	-7,04
557,00	15,15
558,00	0,30
559,00	-4,73
560,00	-1,28
561,00	2,24
562,00	-1,26
563,00	13,53
564,00	-5,93
565,00	-5,45
566,00	-6,80
567,00	1,16
568,00	0,12
569,00	6,72
570,00	0,06
571,00	2,83
572,00	-4,66
573,00	-2,55
574,00	5,67
575,00	-0,93
576,00	12,72
577,00	16,51
578,00	27,44
579,00	31,04
580,00	27,08
581,00	28,14
582,00	29,66
583,00	46,05
584,00	56,96
585,00	48,83
586,00	61,00
587,00	83,89
588,00	74,96
589,00	69,48
590,00	72,19
591,00	51,79
592,00	60,76
593,00	70,60
594,00	61,05
595,00	41,55
596,00	47,75
597,00	41,29
598,00	54,26
599,00	82,90
600,00	88,04
601,00	65,47
602,00	39,07
603,00	37,07
604,00	37,65
605,00	45,30
606,00	55,06
607,00	86,23
608,00	124,11
609,00	213,29
610,00	615,09
611,00	1256,68
612,00	974,27
613,00	676,18
614,00	471,18
615,00	374,52
616,00	280,82
617,00	219,72
618,00	203,35
619,00	213,84
620,00	237,28
621,00	239,97
622,00	235,82
623,00	213,21
624,00	211,34
625,00	207,25
626,00	189,29
627,00	178,61
628,00	191,87
629,00	194,01
630,00	278,28
631,00	283,61
632,00	219,08
633,00	175,08
634,00	167,61
635,00	170,92
636,00	161,89
637,00	166,39
638,00	173,09
639,00	182,19
640,00	183,78
641,00	188,79
642,00	200,13
643,00	222,68
644,00	448,93
645,00	251,43
646,00	239,03
647,00	245,81
648,00	270,74
649,00	273,55
650,00	327,52
651,00	314,42
652,00	330,19
653,00	309,09
654,00	306,84
655,00	318,55
656,00	325,39
657,00	331,87
658,00	347,84
659,00	362,93
660,00	368,76
661,00	378,67
662,00	419,48
663,00	411,49
664,00	433,29
665,00	409,09
666,00	422,44
667,00	446,00
668,00	449,55
669,00	464,70
670,00	453,65
671,00	461,93
672,00	467,81
673,00	482,54
674,00	481,94
675,00	486,16
676,00	485,49
677,00	476,65
678,00	525,58
679,00	489,68
680,00	499,68
681,00	501,21
682,00	501,58
683,00	511,94
684,00	490,16
685,00	493,29
686,00	522,19
687,00	512,03
688,00	504,86
689,00	497,57
690,00	485,96
691,00	480,78
692,00	497,43
693,00	488,75
694,00	495,68
695,00	479,91
696,00	465,94
697,00	462,84
698,00	458,80
699,00	480,30
700,00	438,56
701,00	443,34
702,00	440,27
703,00	429,98
704,00	443,44
705,00	436,24
706,00	452,44
707,00	447,11
708,00	457,19
709,00	428,39
710,00	423,62
711,00	414,66
712,00	415,89
713,00	387,75
714,00	376,81
715,00	365,45
716,00	355,42
717,00	343,42
718,00	334,89
719,00	322,07
720,00	335,42
721,00	481,88
722,00	296,02
723,00	317,19
724,00	306,71
725,00	293,67
726,00	278,99
727,00	269,38
728,00	272,22
729,00	263,30
730,00	256,63
731,00	247,78
732,00	244,85
733,00	227,70
734,00	229,35
735,00	241,02
736,00	229,96
737,00	206,95
738,00	193,03
739,00	225,98
740,00	186,24
741,00	193,00
742,00	183,37
743,00	175,48
744,00	165,90
745,00	173,00
746,00	157,99
747,00	149,34
748,00	186,18
749,00	145,05
750,00	139,73
751,00	131,36
752,00	127,33
753,00	125,21
754,00	124,47
755,00	109,87
756,00	108,30
757,00	104,20
758,00	107,88
759,00	104,01
760,00	97,86
761,00	93,66
762,00	91,37
763,00	86,34
764,00	85,07
765,00	83,72
766,00	72,53
767,00	78,79
768,00	81,28
769,00	62,73
770,00	62,09
771,00	68,35
772,00	61,70
773,00	60,59
774,00	57,39
775,00	52,81
776,00	55,81
777,00	56,59
778,00	41,16
779,00	45,37
780,00	50,40
781,00	56,53
782,00	39,26
783,00	41,63
784,00	38,03
785,00	41,14
786,00	47,22
787,00	42,52
788,00	37,70
789,00	40,80
790,00	46,30
791,00	35,08
792,00	26,68
793,00	32,06
794,00	34,20
795,00	28,19
796,00	44,65
797,00	27,28
798,00	27,57
799,00	25,77
800,00	23,99
801,00	27,95
802,00	36,73
803,00	23,47
804,00	21,81
805,00	45,03
806,00	28,50
807,00	23,48
808,00	21,24
809,00	13,03
810,00	25,29
811,00	15,46
812,00	20,35
813,00	23,92
814,00	10,87
815,00	13,60
816,00	16,59
817,00	11,67
818,00	17,23
819,00	7,09
820,00	10,17
821,00	18,12
822,00	25,99
823,00	8,75
824,00	12,64
825,00	16,05
826,00	12,10
827,00	4,98
828,00	11,50
829,00	1,73
830,00	28,52
831,00	47,75
832,00	11,62
833,00	16,36
834,00	5,28
835,00	15,98
836,00	5,05
837,00	4,88
838,00	8,00
839,00	4,81
840,00	6,44
841,00	16,90
842,00	6,41
843,00	10,37
844,00	5,81
845,00	1,17
846,00	9,15
847,00	2,22
848,00	13,96
849,00	0,73
850,00	2,72
851,00	-2,83
852,00	4,38
853,00	8,82
854,00	-3,18
855,00	13,28
856,00	6,84
857,00	10,83
858,00	0,95
859,00	3,89
860,00	-0,64
861,00	5,22
862,00	4,01
863,00	-0,76
864,00	-1,21
865,00	2,13
866,00	2,99
867,00	25,45
868,00	0,14
869,00	3,88
870,00	-19,89
871,00	0,67
872,00	4,80
873,00	1,89
874,00	-2,98
875,00	-5,17
876,00	-4,47
877,00	-1,23
878,00	-3,55
879,00	3,87
880,00	12,64
881,00	-4,48
882,00	-0,48
883,00	-1,24
884,00	-1,76
885,00	-0,88
886,00	-4,44
887,00	-2,08
888,00	25,35
889,00	-6,25
890,00	-2,35
891,00	3,71
892,00	8,99
893,00	-1,77
894,00	-0,49
895,00	3,62
896,00	2,06
897,00	21,00
898,00	-1,74
899,00	8,70
900,00	-0,31
901,00	-2,99
902,00	-0,99
903,00	-1,10
904,00	6,38
905,00	2,16
906,00	-4,47
907,00	3,63
908,00	-1,10
909,00	0,01
910,00	-1,99
911,00	-8,00
912,00	-0,08
913,00	1,05
914,00	-16,95
915,00	3,36
916,00	1,41
917,00	-4,51
918,00	-5,44
919,00	-1,89
920,00	8,64
921,00	-4,68
922,00	-0,92
923,00	-3,34
924,00	2,20
925,00	-1,62
926,00	-2,96
927,00	-4,04
928,00	-5,93
929,00	5,36
930,00	-7,14
931,00	-4,37
932,00	-5,93
933,00	-5,15
934,00	-7,24
935,00	-1,53
936,00	-9,04
937,00	-2,03
938,00	-3,99
939,00	0,91
940,00	9,39
941,00	0,28
942,00	1,20
943,00	-1,50
944,00	-5,58
945,00	-10,33
946,00	5,67
947,00	2,37
948,00	-2,47
949,00	13,90
950,00	37,62
951,00	-2,99
952,00	9,19
953,00	-1,53
954,00	2,20
955,00	-1,00
956,00	-4,45
957,00	-7,38
958,00	9,90
959,00	-7,46
960,00	-2,76
961,00	0,79
962,00	-3,04
963,00	-0,30
964,00	-7,05
965,00	6,44
966,00	8,57
967,00	-4,31
968,00	2,52
969,00	-1,75
970,00	3,41
971,00	-0,01
972,00	-1,72
973,00	-13,72
974,00	-6,14
975,00	-6,65
976,00	-1,07
977,00	-4,09
978,00	-1,24
979,00	2,90
980,00	-0,96
981,00	4,84
982,00	-2,99
983,00	-6,98
984,00	0,84
985,00	0,16
986,00	-7,04
987,00	-4,39
988,00	-7,92
989,00	-15,47
990,00	-6,94
991,00	12,04
992,00	1,27
993,00	1,18
994,00	0,10
995,00	-5,16
996,00	-1,50
997,00	-5,94
998,00	-2,03
999,00	1,98
1000,00	2,87
>>>>>End Processed Spectral Data<<<<<
