SpectraSuite Datei
++++++++++++++++++++++++++++++++++++
Datum: Mon Feb 18 16:05:01 CET 2019
Benutzer: tu65fis
Dark-Spektrum vorhanden: Ja
Referenz-Spektrum vorhanden: Ja
Zahl der probierten Teilspektren: 1
Spektrometer: USB2G47534
Integrationszeit (usec): 500000 (USB2G47534)
Spektren Durchschnitt berechnet: 1 (USB2G47534)
Boxcar Glättung: 0 (USB2G47534)
Dunkelstromkorrektur: Nein (USB2G47534)
Puls/Lampe aktiviert: Nein (USB2G47534)
Correct for Detector Non-linearity: Nein (USB2G47534)
Streulichtkorrektur: Nein (USB2G47534)
Anzahl Pixel in verarbeitetem Spektrum: 651
>>>>>Begin Processed Spectral Data<<<<<
350,00	-7,98
351,00	-3,41
352,00	-5,24
353,00	-5,69
354,00	-11,82
355,00	-3,26
356,00	-1,96
357,00	2,50
358,00	-13,36
359,00	-6,70
360,00	-6,51
361,00	-5,05
362,00	1,32
363,00	-11,95
364,00	0,66
365,00	-8,69
366,00	-2,83
367,00	-5,33
368,00	1,61
369,00	-6,22
370,00	-4,84
371,00	-1,98
372,00	4,44
373,00	-7,72
374,00	-11,43
375,00	7,28
376,00	-0,07
377,00	1,66
378,00	12,06
379,00	-6,21
380,00	-4,52
381,00	0,54
382,00	65,99
383,00	3,11
384,00	-3,78
385,00	-8,91
386,00	-7,38
387,00	-7,01
388,00	-12,08
389,00	-4,11
390,00	-8,59
391,00	-3,55
392,00	3,36
393,00	-6,92
394,00	-8,22
395,00	-8,07
396,00	4,24
397,00	1,82
398,00	-3,03
399,00	-6,15
400,00	-0,39
401,00	3,91
402,00	-6,31
403,00	-3,23
404,00	-3,24
405,00	-0,47
406,00	-8,01
407,00	-0,91
408,00	-3,08
409,00	1,41
410,00	-2,18
411,00	-0,99
412,00	-9,60
413,00	9,31
414,00	-5,99
415,00	0,97
416,00	2,43
417,00	10,61
418,00	-2,66
419,00	-3,55
420,00	-1,06
421,00	-6,40
422,00	1,61
423,00	-8,56
424,00	9,65
425,00	0,55
426,00	-2,07
427,00	-0,85
428,00	-1,71
429,00	-5,50
430,00	-2,60
431,00	2,03
432,00	3,29
433,00	-6,33
434,00	5,20
435,00	0,78
436,00	16,71
437,00	4,92
438,00	-10,01
439,00	-3,84
440,00	2,20
441,00	16,97
442,00	1,52
443,00	-4,04
444,00	14,64
445,00	-13,02
446,00	-0,65
447,00	1,20
448,00	1,23
449,00	6,09
450,00	9,12
451,00	28,18
452,00	-1,97
453,00	-2,44
454,00	10,89
455,00	1,73
456,00	-1,77
457,00	1,29
458,00	6,73
459,00	0,46
460,00	-7,17
461,00	-5,05
462,00	-0,89
463,00	-5,74
464,00	-5,42
465,00	1,87
466,00	2,88
467,00	0,23
468,00	-3,19
469,00	14,96
470,00	13,70
471,00	7,70
472,00	-0,38
473,00	19,03
474,00	4,75
475,00	3,03
476,00	9,72
477,00	12,42
478,00	13,63
479,00	10,43
480,00	19,49
481,00	19,01
482,00	29,00
483,00	41,96
484,00	51,34
485,00	83,67
486,00	122,54
487,00	126,71
488,00	125,14
489,00	124,58
490,00	122,77
491,00	121,36
492,00	115,76
493,00	107,17
494,00	93,10
495,00	96,39
496,00	92,36
497,00	82,04
498,00	80,68
499,00	71,73
500,00	50,22
501,00	35,97
502,00	30,51
503,00	29,94
504,00	24,51
505,00	13,05
506,00	6,64
507,00	12,56
508,00	13,49
509,00	13,07
510,00	16,20
511,00	11,10
512,00	22,48
513,00	11,00
514,00	14,29
515,00	14,74
516,00	9,08
517,00	8,92
518,00	8,94
519,00	7,19
520,00	5,01
521,00	14,27
522,00	9,40
523,00	14,21
524,00	18,07
525,00	9,90
526,00	15,72
527,00	14,44
528,00	19,37
529,00	15,21
530,00	16,99
531,00	26,56
532,00	30,94
533,00	44,19
534,00	37,20
535,00	55,82
536,00	59,40
537,00	89,92
538,00	170,86
539,00	213,28
540,00	342,15
541,00	623,52
542,00	1057,81
543,00	1298,36
544,00	1273,74
545,00	1368,98
546,00	1340,12
547,00	744,62
548,00	506,37
549,00	440,32
550,00	393,75
551,00	373,07
552,00	368,52
553,00	328,11
554,00	281,27
555,00	260,97
556,00	259,69
557,00	299,47
558,00	317,48
559,00	348,06
560,00	387,51
561,00	435,61
562,00	483,31
563,00	566,77
564,00	597,63
565,00	686,96
566,00	776,83
567,00	880,00
568,00	991,48
569,00	1161,21
570,00	1281,28
571,00	1459,18
572,00	1610,12
573,00	1797,69
574,00	1970,13
575,00	2142,65
576,00	2336,18
577,00	2493,23
578,00	2611,92
579,00	2753,19
580,00	2840,89
581,00	2881,53
582,00	2918,02
583,00	3010,05
584,00	3049,59
585,00	2991,05
586,00	3050,01
587,00	3128,71
588,00	3049,77
589,00	3002,58
590,00	2909,11
591,00	2832,36
592,00	2754,54
593,00	2676,24
594,00	2537,18
595,00	2383,33
596,00	2277,66
597,00	2173,75
598,00	2110,51
599,00	2017,40
600,00	1960,35
601,00	1841,50
602,00	1715,51
603,00	1631,28
604,00	1555,90
605,00	1484,37
606,00	1413,57
607,00	1393,49
608,00	1343,96
609,00	1399,23
610,00	1761,47
611,00	2383,32
612,00	1988,68
613,00	1623,81
614,00	1347,73
615,00	1202,96
616,00	1035,66
617,00	908,98
618,00	845,59
619,00	805,16
620,00	804,42
621,00	765,00
622,00	733,76
623,00	660,17
624,00	618,99
625,00	583,39
626,00	549,24
627,00	499,12
628,00	486,88
629,00	471,23
630,00	489,96
631,00	483,31
632,00	412,31
633,00	346,16
634,00	305,60
635,00	309,03
636,00	269,57
637,00	249,15
638,00	246,32
639,00	217,49
640,00	209,56
641,00	208,32
642,00	193,19
643,00	199,97
644,00	398,68
645,00	187,58
646,00	158,83
647,00	157,43
648,00	150,10
649,00	145,85
650,00	159,43
651,00	145,09
652,00	156,50
653,00	120,96
654,00	109,29
655,00	93,32
656,00	92,79
657,00	86,99
658,00	86,13
659,00	83,99
660,00	79,50
661,00	77,12
662,00	94,22
663,00	82,52
664,00	86,63
665,00	69,70
666,00	60,21
667,00	73,35
668,00	55,57
669,00	56,47
670,00	52,98
671,00	47,24
672,00	60,45
673,00	53,74
674,00	45,92
675,00	51,54
676,00	37,96
677,00	40,57
678,00	60,81
679,00	28,60
680,00	34,61
681,00	35,65
682,00	31,61
683,00	43,99
684,00	23,01
685,00	21,26
686,00	38,03
687,00	30,98
688,00	28,91
689,00	28,32
690,00	22,44
691,00	23,40
692,00	39,04
693,00	25,65
694,00	22,89
695,00	10,35
696,00	12,95
697,00	12,96
698,00	19,15
699,00	39,15
700,00	17,30
701,00	17,31
702,00	12,23
703,00	12,56
704,00	20,36
705,00	24,09
706,00	57,46
707,00	45,38
708,00	60,25
709,00	46,12
710,00	46,88
711,00	31,22
712,00	43,78
713,00	26,74
714,00	12,04
715,00	10,50
716,00	15,43
717,00	1,91
718,00	8,95
719,00	-0,38
720,00	21,38
721,00	168,90
722,00	-4,33
723,00	22,29
724,00	12,96
725,00	8,34
726,00	6,33
727,00	-3,36
728,00	4,63
729,00	11,35
730,00	2,22
731,00	-1,32
732,00	6,60
733,00	1,34
734,00	1,78
735,00	21,09
736,00	0,94
737,00	7,02
738,00	0,02
739,00	20,98
740,00	-1,88
741,00	10,80
742,00	4,95
743,00	4,42
744,00	-1,41
745,00	7,57
746,00	3,08
747,00	2,01
748,00	36,20
749,00	-1,28
750,00	0,87
751,00	1,25
752,00	1,10
753,00	-2,69
754,00	-7,82
755,00	-5,63
756,00	-2,18
757,00	0,42
758,00	3,75
759,00	0,98
760,00	3,01
761,00	-0,78
762,00	-3,21
763,00	-4,36
764,00	0,33
765,00	-0,80
766,00	-4,94
767,00	-5,64
768,00	5,54
769,00	-3,39
770,00	-2,29
771,00	1,35
772,00	-7,02
773,00	-2,53
774,00	-5,59
775,00	-8,58
776,00	6,30
777,00	6,02
778,00	-9,49
779,00	-8,29
780,00	1,00
781,00	2,88
782,00	-7,45
783,00	-1,92
784,00	-3,14
785,00	1,05
786,00	-0,07
787,00	-3,54
788,00	-6,48
789,00	-0,19
790,00	8,13
791,00	-1,33
792,00	-3,43
793,00	-2,49
794,00	-1,88
795,00	-3,46
796,00	7,08
797,00	-4,79
798,00	-4,15
799,00	-3,44
800,00	-6,75
801,00	-2,32
802,00	-0,47
803,00	-4,70
804,00	-8,27
805,00	2,32
806,00	7,16
807,00	4,66
808,00	-3,06
809,00	-5,98
810,00	-0,16
811,00	-6,17
812,00	1,39
813,00	1,62
814,00	-1,92
815,00	-10,03
816,00	-1,35
817,00	-6,17
818,00	-1,98
819,00	-5,62
820,00	-3,73
821,00	-0,82
822,00	12,99
823,00	-0,38
824,00	0,53
825,00	3,96
826,00	-5,85
827,00	-10,92
828,00	-1,33
829,00	-14,87
830,00	12,45
831,00	33,97
832,00	-5,25
833,00	4,90
834,00	-1,91
835,00	6,79
836,00	-9,09
837,00	-7,57
838,00	-6,15
839,00	-3,29
840,00	-0,54
841,00	7,46
842,00	0,47
843,00	8,74
844,00	-0,41
845,00	-4,19
846,00	-1,84
847,00	-0,56
848,00	4,26
849,00	3,79
850,00	-5,14
851,00	-3,07
852,00	5,05
853,00	1,54
854,00	-5,26
855,00	1,02
856,00	0,45
857,00	-0,65
858,00	-5,83
859,00	-3,34
860,00	4,27
861,00	-0,17
862,00	-3,92
863,00	-9,67
864,00	-4,52
865,00	-1,25
866,00	-1,92
867,00	19,41
868,00	-4,40
869,00	0,87
870,00	-6,98
871,00	-6,69
872,00	2,85
873,00	-2,57
874,00	-4,00
875,00	-3,90
876,00	-6,95
877,00	-0,30
878,00	-3,65
879,00	7,20
880,00	8,86
881,00	-10,78
882,00	-4,36
883,00	-2,00
884,00	-3,89
885,00	-4,87
886,00	-5,17
887,00	-6,32
888,00	18,57
889,00	-6,19
890,00	-3,89
891,00	1,00
892,00	10,00
893,00	-2,84
894,00	-3,04
895,00	1,44
896,00	-5,54
897,00	14,01
898,00	1,88
899,00	9,44
900,00	-5,04
901,00	-5,83
902,00	-8,13
903,00	1,47
904,00	4,69
905,00	1,88
906,00	-3,79
907,00	2,05
908,00	-1,98
909,00	1,10
910,00	0,91
911,00	-4,00
912,00	-4,15
913,00	-0,15
914,00	-19,02
915,00	3,06
916,00	-3,19
917,00	-2,09
918,00	-1,77
919,00	-2,89
920,00	6,24
921,00	-0,50
922,00	0,44
923,00	-2,45
924,00	7,42
925,00	-1,05
926,00	-3,05
927,00	-6,75
928,00	-7,99
929,00	5,59
930,00	-4,83
931,00	-7,32
932,00	-2,42
933,00	-5,05
934,00	-10,19
935,00	-4,60
936,00	-3,51
937,00	4,99
938,00	-7,41
939,00	-2,41
940,00	11,47
941,00	-0,62
942,00	-1,76
943,00	-3,05
944,00	-10,02
945,00	-7,83
946,00	6,81
947,00	3,07
948,00	0,57
949,00	12,66
950,00	35,86
951,00	-5,53
952,00	8,11
953,00	0,21
954,00	-8,68
955,00	-8,31
956,00	-8,73
957,00	-6,18
958,00	8,16
959,00	-5,88
960,00	-4,85
961,00	5,94
962,00	-4,03
963,00	3,37
964,00	-9,17
965,00	3,01
966,00	7,79
967,00	-2,43
968,00	-3,76
969,00	-8,64
970,00	0,39
971,00	-5,20
972,00	-6,00
973,00	-14,59
974,00	-5,54
975,00	-0,65
976,00	-2,05
977,00	-6,32
978,00	-4,19
979,00	-0,03
980,00	1,41
981,00	0,67
982,00	-7,51
983,00	-3,08
984,00	-0,81
985,00	-1,93
986,00	-5,22
987,00	-8,06
988,00	-3,29
989,00	-13,44
990,00	-8,56
991,00	11,13
992,00	3,17
993,00	-2,46
994,00	-0,49
995,00	-8,77
996,00	0,68
997,00	-5,50
998,00	-3,37
999,00	4,56
1000,00	6,83
>>>>>End Processed Spectral Data<<<<<
