SpectraSuite Datei
++++++++++++++++++++++++++++++++++++
Datum: Mon Feb 18 15:28:46 CET 2019
Benutzer: tu65fis
Dark-Spektrum vorhanden: Ja
Referenz-Spektrum vorhanden: Ja
Zahl der probierten Teilspektren: 1
Spektrometer: USB2G47534
Integrationszeit (usec): 10000 (USB2G47534)
Spektren Durchschnitt berechnet: 1 (USB2G47534)
Boxcar Glättung: 0 (USB2G47534)
Dunkelstromkorrektur: Nein (USB2G47534)
Puls/Lampe aktiviert: Nein (USB2G47534)
Correct for Detector Non-linearity: Nein (USB2G47534)
Streulichtkorrektur: Nein (USB2G47534)
Anzahl Pixel in verarbeitetem Spektrum: 651
>>>>>Begin Processed Spectral Data<<<<<
350,00	0,174
351,00	-0,000
352,00	-0,000
353,00	-0,609
354,00	-0,000
355,00	0,145
356,00	-0,311
357,00	-0,207
358,00	-0,000
359,00	-0,000
360,00	-0,000
361,00	-0,201
362,00	0,579
363,00	-0,000
364,00	-0,034
365,00	-0,000
366,00	0,165
367,00	0,022
368,00	-0,000
369,00	-0,477
370,00	0,514
371,00	0,473
372,00	-0,000
373,00	-0,086
374,00	0,497
375,00	-0,326
376,00	0,064
377,00	-0,037
378,00	-0,057
379,00	0,592
380,00	0,182
381,00	0,282
382,00	0,148
383,00	0,328
384,00	0,482
385,00	0,457
386,00	0,256
387,00	0,415
388,00	0,285
389,00	0,243
390,00	0,350
391,00	0,334
392,00	0,143
393,00	0,262
394,00	0,417
395,00	0,227
396,00	0,230
397,00	0,296
398,00	0,345
399,00	0,291
400,00	0,334
401,00	0,269
402,00	0,475
403,00	0,384
404,00	0,286
405,00	0,406
406,00	0,402
407,00	0,372
408,00	0,411
409,00	0,379
410,00	0,362
411,00	0,362
412,00	0,357
413,00	0,320
414,00	0,316
415,00	0,306
416,00	0,338
417,00	0,351
418,00	0,293
419,00	0,265
420,00	0,262
421,00	0,236
422,00	0,190
423,00	0,227
424,00	0,192
425,00	0,181
426,00	0,158
427,00	0,157
428,00	0,163
429,00	0,141
430,00	0,132
431,00	0,112
432,00	0,118
433,00	0,111
434,00	0,084
435,00	0,076
436,00	0,088
437,00	0,090
438,00	0,111
439,00	0,077
440,00	0,071
441,00	0,074
442,00	0,084
443,00	0,071
444,00	0,079
445,00	0,075
446,00	0,063
447,00	0,091
448,00	0,059
449,00	0,076
450,00	0,082
451,00	0,066
452,00	0,070
453,00	0,071
454,00	0,073
455,00	0,072
456,00	0,089
457,00	0,088
458,00	0,078
459,00	0,086
460,00	0,072
461,00	0,093
462,00	0,080
463,00	0,093
464,00	0,088
465,00	0,089
466,00	0,091
467,00	0,091
468,00	0,092
469,00	0,095
470,00	0,102
471,00	0,094
472,00	0,094
473,00	0,099
474,00	0,096
475,00	0,090
476,00	0,108
477,00	0,107
478,00	0,091
479,00	0,102
480,00	0,112
481,00	0,106
482,00	0,122
483,00	0,111
484,00	0,109
485,00	0,123
486,00	0,121
487,00	0,115
488,00	0,114
489,00	0,115
490,00	0,125
491,00	0,122
492,00	0,141
493,00	0,130
494,00	0,128
495,00	0,133
496,00	0,136
497,00	0,130
498,00	0,131
499,00	0,131
500,00	0,137
501,00	0,135
502,00	0,149
503,00	0,138
504,00	0,145
505,00	0,145
506,00	0,147
507,00	0,156
508,00	0,151
509,00	0,149
510,00	0,159
511,00	0,154
512,00	0,162
513,00	0,169
514,00	0,163
515,00	0,165
516,00	0,168
517,00	0,163
518,00	0,179
519,00	0,179
520,00	0,176
521,00	0,189
522,00	0,183
523,00	0,191
524,00	0,197
525,00	0,194
526,00	0,204
527,00	0,208
528,00	0,216
529,00	0,219
530,00	0,219
531,00	0,224
532,00	0,224
533,00	0,228
534,00	0,232
535,00	0,237
536,00	0,244
537,00	0,252
538,00	0,242
539,00	0,253
540,00	0,263
541,00	0,272
542,00	0,279
543,00	0,285
544,00	0,292
545,00	0,294
546,00	0,305
547,00	0,327
548,00	0,329
549,00	0,334
550,00	0,349
551,00	0,350
552,00	0,371
553,00	0,377
554,00	0,384
555,00	0,397
556,00	0,419
557,00	0,415
558,00	0,437
559,00	0,448
560,00	0,476
561,00	0,495
562,00	0,512
563,00	0,529
564,00	0,534
565,00	0,551
566,00	0,574
567,00	0,602
568,00	0,618
569,00	0,653
570,00	0,654
571,00	0,684
572,00	0,697
573,00	0,725
574,00	0,732
575,00	0,767
576,00	0,777
577,00	0,804
578,00	0,811
579,00	0,846
580,00	0,860
581,00	0,876
582,00	0,908
583,00	0,914
584,00	0,951
585,00	0,962
586,00	0,972
587,00	1,002
588,00	1,026
589,00	1,038
590,00	1,049
591,00	1,062
592,00	1,078
593,00	1,111
594,00	1,130
595,00	1,163
596,00	1,200
597,00	1,213
598,00	1,232
599,00	1,302
600,00	1,323
601,00	1,360
602,00	1,375
603,00	1,447
604,00	1,446
605,00	1,481
606,00	1,613
607,00	1,621
608,00	1,669
609,00	1,744
610,00	1,806
611,00	1,902
612,00	1,924
613,00	1,964
614,00	2,115
615,00	2,065
616,00	2,247
617,00	2,266
618,00	2,434
619,00	2,580
620,00	3,179
621,00	3,594
622,00	3,140
623,00	3,246
624,00	2,601
625,00	3,188
626,00	2,359
627,00	2,858
628,00	2,539
629,00	2,545
630,00	2,604
631,00	3,439
632,00	2,681
633,00	2,509
634,00	2,575
635,00	2,641
636,00	-0,000
637,00	2,388
638,00	2,415
639,00	2,279
640,00	2,199
641,00	2,128
642,00	2,004
643,00	1,952
644,00	1,882
645,00	1,797
646,00	1,717
647,00	1,574
648,00	1,455
649,00	1,419
650,00	1,303
651,00	1,217
652,00	1,141
653,00	1,081
654,00	0,993
655,00	0,928
656,00	0,872
657,00	0,794
658,00	0,726
659,00	0,677
660,00	0,629
661,00	0,566
662,00	0,534
663,00	0,487
664,00	0,440
665,00	0,405
666,00	0,377
667,00	0,347
668,00	0,308
669,00	0,286
670,00	0,259
671,00	0,236
672,00	0,223
673,00	0,205
674,00	0,183
675,00	0,170
676,00	0,160
677,00	0,136
678,00	0,133
679,00	0,118
680,00	0,110
681,00	0,105
682,00	0,094
683,00	0,087
684,00	0,077
685,00	0,072
686,00	0,070
687,00	0,060
688,00	0,056
689,00	0,052
690,00	0,049
691,00	0,048
692,00	0,042
693,00	0,040
694,00	0,039
695,00	0,030
696,00	0,031
697,00	0,031
698,00	0,029
699,00	0,024
700,00	0,021
701,00	0,018
702,00	0,023
703,00	0,016
704,00	0,016
705,00	0,017
706,00	0,019
707,00	0,013
708,00	0,016
709,00	0,017
710,00	0,015
711,00	0,010
712,00	0,009
713,00	0,006
714,00	0,012
715,00	0,002
716,00	0,009
717,00	0,006
718,00	0,008
719,00	0,012
720,00	0,009
721,00	0,007
722,00	0,004
723,00	0,005
724,00	0,010
725,00	0,005
726,00	0,012
727,00	0,007
728,00	0,005
729,00	0,009
730,00	0,011
731,00	0,006
732,00	0,004
733,00	0,007
734,00	0,003
735,00	0,002
736,00	0,009
737,00	0,004
738,00	-0,001
739,00	0,005
740,00	-0,001
741,00	0,002
742,00	-0,001
743,00	0,003
744,00	0,005
745,00	0,006
746,00	0,008
747,00	0,009
748,00	0,001
749,00	0,001
750,00	-0,002
751,00	0,005
752,00	-0,001
753,00	0,003
754,00	0,002
755,00	0,005
756,00	0,004
757,00	0,006
758,00	0,005
759,00	-0,001
760,00	0,001
761,00	0,006
762,00	0,008
763,00	-0,002
764,00	-0,006
765,00	-0,003
766,00	0,010
767,00	0,003
768,00	0,002
769,00	-0,006
770,00	0,001
771,00	-0,000
772,00	0,008
773,00	0,014
774,00	-0,000
775,00	0,001
776,00	-0,010
777,00	-0,002
778,00	-0,004
779,00	0,004
780,00	-0,004
781,00	-0,004
782,00	-0,009
783,00	0,001
784,00	0,001
785,00	-0,001
786,00	-0,003
787,00	0,007
788,00	0,004
789,00	-0,007
790,00	0,005
791,00	0,005
792,00	-0,003
793,00	-0,005
794,00	-0,008
795,00	0,006
796,00	0,009
797,00	-0,004
798,00	-0,005
799,00	0,002
800,00	0,008
801,00	0,001
802,00	-0,008
803,00	-0,010
804,00	-0,005
805,00	-0,002
806,00	0,000
807,00	0,006
808,00	0,000
809,00	0,018
810,00	0,011
811,00	0,002
812,00	-0,001
813,00	0,000
814,00	0,000
815,00	0,003
816,00	-0,003
817,00	-0,003
818,00	0,005
819,00	0,000
820,00	0,004
821,00	0,002
822,00	-0,002
823,00	-0,006
824,00	-0,003
825,00	0,004
826,00	0,001
827,00	0,000
828,00	-0,003
829,00	0,008
830,00	0,007
831,00	0,001
832,00	-0,003
833,00	0,001
834,00	0,005
835,00	-0,004
836,00	0,011
837,00	-0,000
838,00	0,009
839,00	-0,003
840,00	-0,001
841,00	-0,002
842,00	0,001
843,00	0,000
844,00	0,009
845,00	-0,006
846,00	-0,008
847,00	0,005
848,00	0,002
849,00	-0,006
850,00	0,002
851,00	-0,006
852,00	-0,000
853,00	0,000
854,00	0,001
855,00	0,004
856,00	0,010
857,00	-0,001
858,00	0,007
859,00	0,007
860,00	0,008
861,00	-0,008
862,00	-0,003
863,00	0,001
864,00	-0,000
865,00	-0,007
866,00	0,014
867,00	-0,003
868,00	0,002
869,00	0,003
870,00	0,009
871,00	-0,001
872,00	0,006
873,00	0,000
874,00	-0,005
875,00	-0,011
876,00	-0,000
877,00	-0,003
878,00	-0,005
879,00	-0,016
880,00	-0,002
881,00	0,009
882,00	0,004
883,00	0,008
884,00	-0,001
885,00	-0,009
886,00	-0,020
887,00	-0,013
888,00	-0,004
889,00	-0,010
890,00	0,014
891,00	0,008
892,00	0,005
893,00	-0,004
894,00	0,006
895,00	-0,014
896,00	-0,006
897,00	-0,016
898,00	-0,016
899,00	-0,018
900,00	-0,006
901,00	-0,000
902,00	-0,016
903,00	-0,004
904,00	0,002
905,00	-0,001
906,00	-0,009
907,00	0,004
908,00	0,004
909,00	-0,019
910,00	-0,017
911,00	-0,002
912,00	-0,002
913,00	0,003
914,00	0,004
915,00	-0,013
916,00	0,003
917,00	-0,016
918,00	0,008
919,00	0,023
920,00	0,005
921,00	-0,001
922,00	0,007
923,00	-0,001
924,00	0,012
925,00	0,005
926,00	-0,016
927,00	-0,005
928,00	0,002
929,00	-0,006
930,00	-0,004
931,00	0,014
932,00	0,008
933,00	-0,011
934,00	0,004
935,00	0,012
936,00	-0,009
937,00	-0,001
938,00	-0,010
939,00	-0,016
940,00	0,005
941,00	0,014
942,00	-0,005
943,00	-0,004
944,00	-0,018
945,00	0,008
946,00	-0,015
947,00	-0,007
948,00	-0,001
949,00	0,009
950,00	0,012
951,00	-0,023
952,00	0,006
953,00	0,010
954,00	0,005
955,00	-0,022
956,00	-0,003
957,00	0,023
958,00	-0,031
959,00	-0,009
960,00	-0,032
961,00	0,018
962,00	0,043
963,00	0,009
964,00	0,001
965,00	-0,008
966,00	-0,010
967,00	0,018
968,00	-0,025
969,00	-0,035
970,00	0,015
971,00	0,011
972,00	0,031
973,00	-0,009
974,00	0,037
975,00	-0,004
976,00	0,011
977,00	-0,037
978,00	-0,037
979,00	-0,037
980,00	0,013
981,00	-0,010
982,00	0,016
983,00	0,005
984,00	-0,003
985,00	0,011
986,00	-0,007
987,00	0,000
988,00	-0,017
989,00	0,079
990,00	0,004
991,00	-0,012
992,00	-0,007
993,00	0,035
994,00	0,008
995,00	0,001
996,00	0,001
997,00	-0,011
998,00	-0,045
999,00	0,032
1000,00	-0,021
>>>>>End Processed Spectral Data<<<<<
