SpectraSuite Datei
++++++++++++++++++++++++++++++++++++
Datum: Mon Feb 18 15:37:08 CET 2019
Benutzer: tu65fis
Dark-Spektrum vorhanden: Ja
Referenz-Spektrum vorhanden: Ja
Zahl der probierten Teilspektren: 1
Spektrometer: USB2G47534
Integrationszeit (usec): 10000 (USB2G47534)
Spektren Durchschnitt berechnet: 1 (USB2G47534)
Boxcar Glättung: 0 (USB2G47534)
Dunkelstromkorrektur: Nein (USB2G47534)
Puls/Lampe aktiviert: Nein (USB2G47534)
Correct for Detector Non-linearity: Nein (USB2G47534)
Streulichtkorrektur: Nein (USB2G47534)
Anzahl Pixel in verarbeitetem Spektrum: 651
>>>>>Begin Processed Spectral Data<<<<<
350,00	-0,214
351,00	-0,000
352,00	-0,000
353,00	-0,499
354,00	-1,216
355,00	0,063
356,00	-0,258
357,00	-0,207
358,00	-0,000
359,00	-0,000
360,00	-0,000
361,00	-0,729
362,00	-0,000
363,00	-0,777
364,00	-0,000
365,00	-0,000
366,00	1,617
367,00	-0,000
368,00	0,581
369,00	-0,000
370,00	-0,000
371,00	-0,000
372,00	-0,000
373,00	0,490
374,00	0,395
375,00	-0,000
376,00	0,333
377,00	0,347
378,00	0,286
379,00	0,581
380,00	0,485
381,00	0,271
382,00	0,207
383,00	0,342
384,00	0,507
385,00	0,428
386,00	0,337
387,00	0,398
388,00	0,300
389,00	0,237
390,00	0,233
391,00	0,274
392,00	0,155
393,00	0,320
394,00	0,395
395,00	0,229
396,00	0,181
397,00	0,220
398,00	0,307
399,00	0,321
400,00	0,303
401,00	0,233
402,00	0,285
403,00	0,247
404,00	0,230
405,00	0,303
406,00	0,276
407,00	0,217
408,00	0,251
409,00	0,279
410,00	0,264
411,00	0,209
412,00	0,257
413,00	0,253
414,00	0,230
415,00	0,255
416,00	0,291
417,00	0,256
418,00	0,244
419,00	0,235
420,00	0,238
421,00	0,250
422,00	0,247
423,00	0,273
424,00	0,241
425,00	0,286
426,00	0,259
427,00	0,237
428,00	0,265
429,00	0,270
430,00	0,252
431,00	0,225
432,00	0,255
433,00	0,267
434,00	0,252
435,00	0,290
436,00	0,269
437,00	0,278
438,00	0,271
439,00	0,268
440,00	0,275
441,00	0,274
442,00	0,293
443,00	0,289
444,00	0,275
445,00	0,281
446,00	0,296
447,00	0,318
448,00	0,295
449,00	0,308
450,00	0,326
451,00	0,318
452,00	0,329
453,00	0,329
454,00	0,330
455,00	0,358
456,00	0,365
457,00	0,363
458,00	0,350
459,00	0,383
460,00	0,380
461,00	0,414
462,00	0,393
463,00	0,424
464,00	0,423
465,00	0,421
466,00	0,437
467,00	0,432
468,00	0,441
469,00	0,456
470,00	0,472
471,00	0,456
472,00	0,475
473,00	0,488
474,00	0,493
475,00	0,500
476,00	0,516
477,00	0,525
478,00	0,521
479,00	0,510
480,00	0,545
481,00	0,538
482,00	0,564
483,00	0,550
484,00	0,551
485,00	0,559
486,00	0,571
487,00	0,583
488,00	0,587
489,00	0,586
490,00	0,599
491,00	0,596
492,00	0,611
493,00	0,614
494,00	0,615
495,00	0,611
496,00	0,610
497,00	0,611
498,00	0,614
499,00	0,604
500,00	0,607
501,00	0,596
502,00	0,604
503,00	0,597
504,00	0,588
505,00	0,594
506,00	0,592
507,00	0,582
508,00	0,579
509,00	0,581
510,00	0,576
511,00	0,562
512,00	0,562
513,00	0,561
514,00	0,546
515,00	0,539
516,00	0,526
517,00	0,525
518,00	0,515
519,00	0,522
520,00	0,511
521,00	0,497
522,00	0,489
523,00	0,487
524,00	0,481
525,00	0,478
526,00	0,471
527,00	0,465
528,00	0,453
529,00	0,443
530,00	0,438
531,00	0,429
532,00	0,421
533,00	0,416
534,00	0,407
535,00	0,391
536,00	0,389
537,00	0,385
538,00	0,375
539,00	0,364
540,00	0,354
541,00	0,339
542,00	0,336
543,00	0,334
544,00	0,318
545,00	0,310
546,00	0,300
547,00	0,294
548,00	0,278
549,00	0,276
550,00	0,261
551,00	0,247
552,00	0,239
553,00	0,231
554,00	0,212
555,00	0,205
556,00	0,197
557,00	0,185
558,00	0,174
559,00	0,160
560,00	0,159
561,00	0,148
562,00	0,141
563,00	0,131
564,00	0,120
565,00	0,110
566,00	0,108
567,00	0,104
568,00	0,106
569,00	0,099
570,00	0,088
571,00	0,083
572,00	0,073
573,00	0,075
574,00	0,065
575,00	0,064
576,00	0,056
577,00	0,056
578,00	0,054
579,00	0,054
580,00	0,044
581,00	0,051
582,00	0,052
583,00	0,046
584,00	0,044
585,00	0,039
586,00	0,042
587,00	0,041
588,00	0,034
589,00	0,029
590,00	0,030
591,00	0,030
592,00	0,033
593,00	0,029
594,00	0,027
595,00	0,020
596,00	0,027
597,00	0,022
598,00	0,020
599,00	0,029
600,00	0,019
601,00	0,023
602,00	0,018
603,00	0,024
604,00	0,022
605,00	0,021
606,00	0,020
607,00	0,023
608,00	0,016
609,00	0,022
610,00	0,018
611,00	0,019
612,00	0,019
613,00	0,015
614,00	0,023
615,00	0,019
616,00	0,018
617,00	0,017
618,00	0,018
619,00	0,021
620,00	0,025
621,00	0,018
622,00	0,016
623,00	0,021
624,00	0,021
625,00	0,016
626,00	0,020
627,00	0,018
628,00	0,013
629,00	0,014
630,00	0,021
631,00	0,023
632,00	0,023
633,00	0,021
634,00	0,015
635,00	0,014
636,00	0,012
637,00	0,017
638,00	0,016
639,00	0,016
640,00	0,017
641,00	0,016
642,00	0,014
643,00	0,023
644,00	0,020
645,00	0,018
646,00	0,019
647,00	0,020
648,00	0,023
649,00	0,021
650,00	0,017
651,00	0,017
652,00	0,017
653,00	0,017
654,00	0,022
655,00	0,015
656,00	0,014
657,00	0,013
658,00	0,015
659,00	0,017
660,00	0,018
661,00	0,018
662,00	0,019
663,00	0,020
664,00	0,015
665,00	0,020
666,00	0,021
667,00	0,022
668,00	0,021
669,00	0,016
670,00	0,015
671,00	0,008
672,00	0,015
673,00	0,011
674,00	0,013
675,00	0,013
676,00	0,019
677,00	0,007
678,00	0,020
679,00	0,013
680,00	0,015
681,00	0,015
682,00	0,018
683,00	0,020
684,00	0,016
685,00	0,017
686,00	0,023
687,00	0,013
688,00	0,016
689,00	0,013
690,00	0,013
691,00	0,016
692,00	0,019
693,00	0,017
694,00	0,014
695,00	0,011
696,00	0,017
697,00	0,014
698,00	0,017
699,00	0,010
700,00	0,012
701,00	0,011
702,00	0,017
703,00	0,015
704,00	0,010
705,00	0,013
706,00	0,013
707,00	0,017
708,00	0,019
709,00	0,010
710,00	0,017
711,00	0,017
712,00	0,014
713,00	0,008
714,00	0,012
715,00	0,010
716,00	0,014
717,00	0,012
718,00	0,010
719,00	0,017
720,00	0,010
721,00	0,018
722,00	0,016
723,00	0,008
724,00	0,012
725,00	0,012
726,00	0,016
727,00	0,014
728,00	0,014
729,00	0,019
730,00	0,019
731,00	0,015
732,00	0,008
733,00	0,013
734,00	0,018
735,00	0,010
736,00	0,012
737,00	0,017
738,00	0,010
739,00	0,012
740,00	0,005
741,00	0,012
742,00	0,015
743,00	0,016
744,00	0,014
745,00	0,014
746,00	0,018
747,00	0,015
748,00	0,016
749,00	0,012
750,00	0,020
751,00	0,022
752,00	0,020
753,00	0,021
754,00	0,017
755,00	0,017
756,00	0,015
757,00	0,027
758,00	0,022
759,00	0,021
760,00	0,010
761,00	0,011
762,00	0,016
763,00	0,005
764,00	0,010
765,00	0,010
766,00	0,017
767,00	0,018
768,00	0,017
769,00	0,007
770,00	0,015
771,00	0,015
772,00	0,015
773,00	0,014
774,00	0,004
775,00	0,009
776,00	0,002
777,00	0,011
778,00	0,010
779,00	0,013
780,00	0,012
781,00	0,019
782,00	0,007
783,00	0,012
784,00	0,009
785,00	0,010
786,00	0,010
787,00	0,016
788,00	0,016
789,00	0,009
790,00	0,012
791,00	0,017
792,00	0,008
793,00	0,003
794,00	-0,004
795,00	0,013
796,00	0,018
797,00	0,016
798,00	0,008
799,00	0,007
800,00	0,011
801,00	0,014
802,00	-0,001
803,00	0,004
804,00	0,013
805,00	0,008
806,00	0,005
807,00	0,016
808,00	0,008
809,00	0,019
810,00	0,024
811,00	0,015
812,00	0,015
813,00	0,018
814,00	0,007
815,00	0,019
816,00	0,018
817,00	0,006
818,00	0,008
819,00	0,005
820,00	0,006
821,00	0,011
822,00	0,017
823,00	0,008
824,00	0,016
825,00	0,010
826,00	0,007
827,00	0,008
828,00	0,007
829,00	0,012
830,00	0,018
831,00	0,012
832,00	0,010
833,00	0,014
834,00	0,018
835,00	0,014
836,00	0,023
837,00	0,022
838,00	0,020
839,00	0,016
840,00	0,025
841,00	0,020
842,00	0,015
843,00	0,017
844,00	0,022
845,00	0,010
846,00	0,011
847,00	0,014
848,00	0,012
849,00	0,001
850,00	0,013
851,00	0,012
852,00	0,006
853,00	0,015
854,00	0,008
855,00	0,016
856,00	0,027
857,00	0,009
858,00	0,007
859,00	0,017
860,00	0,025
861,00	0,016
862,00	0,016
863,00	0,024
864,00	0,015
865,00	0,007
866,00	0,017
867,00	0,010
868,00	0,007
869,00	0,010
870,00	0,011
871,00	-0,002
872,00	0,017
873,00	0,011
874,00	0,010
875,00	0,011
876,00	0,015
877,00	0,016
878,00	0,000
879,00	-0,000
880,00	0,004
881,00	0,010
882,00	0,005
883,00	0,013
884,00	0,022
885,00	0,014
886,00	-0,008
887,00	-0,009
888,00	0,002
889,00	0,002
890,00	0,010
891,00	-0,000
892,00	0,012
893,00	0,013
894,00	0,009
895,00	0,004
896,00	0,012
897,00	0,008
898,00	0,010
899,00	-0,008
900,00	0,004
901,00	0,011
902,00	-0,001
903,00	0,000
904,00	0,011
905,00	0,013
906,00	0,007
907,00	0,010
908,00	0,023
909,00	-0,002
910,00	0,008
911,00	0,018
912,00	0,005
913,00	0,024
914,00	0,017
915,00	0,003
916,00	0,020
917,00	0,015
918,00	0,012
919,00	0,028
920,00	0,010
921,00	0,021
922,00	0,026
923,00	0,014
924,00	0,022
925,00	0,035
926,00	0,009
927,00	0,013
928,00	0,021
929,00	0,004
930,00	0,018
931,00	0,013
932,00	0,024
933,00	0,003
934,00	0,009
935,00	0,022
936,00	0,005
937,00	0,017
938,00	-0,001
939,00	0,008
940,00	0,037
941,00	0,043
942,00	0,022
943,00	0,002
944,00	-0,004
945,00	0,038
946,00	0,032
947,00	0,022
948,00	0,020
949,00	0,021
950,00	0,010
951,00	0,008
952,00	0,042
953,00	0,001
954,00	0,031
955,00	-0,018
956,00	0,019
957,00	0,046
958,00	0,032
959,00	0,027
960,00	0,001
961,00	0,049
962,00	0,049
963,00	0,028
964,00	0,016
965,00	0,006
966,00	0,012
967,00	0,026
968,00	0,031
969,00	-0,005
970,00	-0,005
971,00	0,045
972,00	0,045
973,00	0,075
974,00	0,066
975,00	-0,002
976,00	0,025
977,00	0,067
978,00	0,026
979,00	-0,024
980,00	0,041
981,00	0,043
982,00	0,055
983,00	0,033
984,00	0,037
985,00	0,031
986,00	0,028
987,00	0,027
988,00	0,023
989,00	0,075
990,00	0,074
991,00	-0,037
992,00	0,033
993,00	-0,021
994,00	0,022
995,00	-0,026
996,00	0,032
997,00	0,067
998,00	0,034
999,00	0,043
1000,00	0,038
>>>>>End Processed Spectral Data<<<<<
