SpectraSuite Datei
++++++++++++++++++++++++++++++++++++
Datum: Mon Feb 18 15:39:22 CET 2019
Benutzer: tu65fis
Dark-Spektrum vorhanden: Ja
Referenz-Spektrum vorhanden: Ja
Zahl der probierten Teilspektren: 1
Spektrometer: USB2G47534
Integrationszeit (usec): 10000 (USB2G47534)
Spektren Durchschnitt berechnet: 1 (USB2G47534)
Boxcar Glättung: 0 (USB2G47534)
Dunkelstromkorrektur: Nein (USB2G47534)
Puls/Lampe aktiviert: Nein (USB2G47534)
Correct for Detector Non-linearity: Nein (USB2G47534)
Streulichtkorrektur: Nein (USB2G47534)
Anzahl Pixel in verarbeitetem Spektrum: 651
>>>>>Begin Processed Spectral Data<<<<<
350,00	-0,215
351,00	-0,000
352,00	-0,000
353,00	-0,853
354,00	-1,311
355,00	-0,156
356,00	-0,540
357,00	0,230
358,00	-0,000
359,00	-0,000
360,00	-0,000
361,00	-0,504
362,00	1,202
363,00	-0,602
364,00	0,413
365,00	-0,000
366,00	-0,000
367,00	-0,000
368,00	0,156
369,00	-0,000
370,00	-0,000
371,00	0,779
372,00	0,750
373,00	2,524
374,00	0,478
375,00	-0,000
376,00	0,404
377,00	0,661
378,00	0,271
379,00	-0,000
380,00	1,082
381,00	0,362
382,00	0,301
383,00	0,288
384,00	0,480
385,00	0,309
386,00	0,311
387,00	0,417
388,00	0,461
389,00	0,253
390,00	0,428
391,00	0,232
392,00	0,194
393,00	0,317
394,00	0,361
395,00	0,346
396,00	0,168
397,00	0,234
398,00	0,362
399,00	0,244
400,00	0,279
401,00	0,221
402,00	0,293
403,00	0,296
404,00	0,305
405,00	0,271
406,00	0,238
407,00	0,209
408,00	0,270
409,00	0,298
410,00	0,282
411,00	0,288
412,00	0,280
413,00	0,273
414,00	0,293
415,00	0,235
416,00	0,292
417,00	0,263
418,00	0,247
419,00	0,236
420,00	0,218
421,00	0,261
422,00	0,258
423,00	0,240
424,00	0,217
425,00	0,234
426,00	0,270
427,00	0,270
428,00	0,250
429,00	0,258
430,00	0,263
431,00	0,222
432,00	0,268
433,00	0,245
434,00	0,228
435,00	0,270
436,00	0,247
437,00	0,281
438,00	0,291
439,00	0,280
440,00	0,267
441,00	0,277
442,00	0,301
443,00	0,290
444,00	0,287
445,00	0,299
446,00	0,299
447,00	0,299
448,00	0,282
449,00	0,300
450,00	0,315
451,00	0,326
452,00	0,311
453,00	0,341
454,00	0,344
455,00	0,340
456,00	0,356
457,00	0,373
458,00	0,347
459,00	0,368
460,00	0,374
461,00	0,413
462,00	0,383
463,00	0,400
464,00	0,396
465,00	0,424
466,00	0,424
467,00	0,429
468,00	0,436
469,00	0,447
470,00	0,469
471,00	0,468
472,00	0,478
473,00	0,467
474,00	0,478
475,00	0,493
476,00	0,503
477,00	0,523
478,00	0,504
479,00	0,509
480,00	0,529
481,00	0,532
482,00	0,545
483,00	0,548
484,00	0,545
485,00	0,559
486,00	0,556
487,00	0,587
488,00	0,573
489,00	0,560
490,00	0,577
491,00	0,584
492,00	0,593
493,00	0,601
494,00	0,605
495,00	0,593
496,00	0,600
497,00	0,598
498,00	0,612
499,00	0,598
500,00	0,605
501,00	0,599
502,00	0,612
503,00	0,599
504,00	0,603
505,00	0,601
506,00	0,593
507,00	0,591
508,00	0,597
509,00	0,589
510,00	0,581
511,00	0,563
512,00	0,578
513,00	0,576
514,00	0,567
515,00	0,556
516,00	0,561
517,00	0,545
518,00	0,561
519,00	0,554
520,00	0,544
521,00	0,528
522,00	0,522
523,00	0,520
524,00	0,521
525,00	0,505
526,00	0,508
527,00	0,502
528,00	0,490
529,00	0,487
530,00	0,476
531,00	0,464
532,00	0,460
533,00	0,453
534,00	0,452
535,00	0,447
536,00	0,445
537,00	0,430
538,00	0,417
539,00	0,414
540,00	0,399
541,00	0,399
542,00	0,392
543,00	0,391
544,00	0,372
545,00	0,357
546,00	0,362
547,00	0,346
548,00	0,343
549,00	0,328
550,00	0,318
551,00	0,312
552,00	0,305
553,00	0,293
554,00	0,274
555,00	0,269
556,00	0,268
557,00	0,260
558,00	0,238
559,00	0,226
560,00	0,230
561,00	0,222
562,00	0,213
563,00	0,205
564,00	0,202
565,00	0,191
566,00	0,185
567,00	0,179
568,00	0,179
569,00	0,175
570,00	0,164
571,00	0,159
572,00	0,153
573,00	0,148
574,00	0,143
575,00	0,150
576,00	0,144
577,00	0,137
578,00	0,135
579,00	0,137
580,00	0,134
581,00	0,130
582,00	0,130
583,00	0,129
584,00	0,132
585,00	0,125
586,00	0,129
587,00	0,128
588,00	0,124
589,00	0,123
590,00	0,124
591,00	0,125
592,00	0,125
593,00	0,124
594,00	0,121
595,00	0,118
596,00	0,126
597,00	0,124
598,00	0,121
599,00	0,127
600,00	0,129
601,00	0,134
602,00	0,135
603,00	0,137
604,00	0,142
605,00	0,147
606,00	0,150
607,00	0,158
608,00	0,160
609,00	0,167
610,00	0,168
611,00	0,177
612,00	0,186
613,00	0,183
614,00	0,202
615,00	0,198
616,00	0,206
617,00	0,216
618,00	0,225
619,00	0,234
620,00	0,234
621,00	0,239
622,00	0,238
623,00	0,249
624,00	0,247
625,00	0,250
626,00	0,258
627,00	0,256
628,00	0,260
629,00	0,261
630,00	0,267
631,00	0,266
632,00	0,259
633,00	0,256
634,00	0,249
635,00	0,244
636,00	0,237
637,00	0,233
638,00	0,225
639,00	0,217
640,00	0,213
641,00	0,193
642,00	0,189
643,00	0,187
644,00	0,181
645,00	0,168
646,00	0,158
647,00	0,153
648,00	0,152
649,00	0,131
650,00	0,121
651,00	0,111
652,00	0,107
653,00	0,100
654,00	0,097
655,00	0,088
656,00	0,081
657,00	0,075
658,00	0,068
659,00	0,061
660,00	0,060
661,00	0,052
662,00	0,054
663,00	0,047
664,00	0,040
665,00	0,041
666,00	0,040
667,00	0,039
668,00	0,037
669,00	0,034
670,00	0,027
671,00	0,018
672,00	0,023
673,00	0,023
674,00	0,021
675,00	0,020
676,00	0,018
677,00	0,011
678,00	0,018
679,00	0,015
680,00	0,014
681,00	0,014
682,00	0,014
683,00	0,012
684,00	0,011
685,00	0,015
686,00	0,015
687,00	0,013
688,00	0,012
689,00	0,008
690,00	0,012
691,00	0,018
692,00	0,011
693,00	0,006
694,00	0,006
695,00	0,005
696,00	0,006
697,00	0,004
698,00	0,008
699,00	0,000
700,00	0,001
701,00	0,005
702,00	0,006
703,00	0,006
704,00	0,006
705,00	0,001
706,00	0,007
707,00	0,011
708,00	0,007
709,00	0,006
710,00	0,005
711,00	0,007
712,00	0,007
713,00	0,002
714,00	0,008
715,00	0,003
716,00	0,009
717,00	0,012
718,00	0,001
719,00	0,005
720,00	-0,000
721,00	0,003
722,00	0,001
723,00	-0,003
724,00	0,008
725,00	-0,001
726,00	0,003
727,00	-0,001
728,00	0,010
729,00	0,005
730,00	0,010
731,00	0,010
732,00	0,003
733,00	0,002
734,00	0,003
735,00	0,000
736,00	-0,000
737,00	0,005
738,00	-0,001
739,00	0,007
740,00	-0,007
741,00	0,008
742,00	0,003
743,00	0,011
744,00	0,002
745,00	0,003
746,00	-0,001
747,00	0,008
748,00	0,005
749,00	0,006
750,00	0,008
751,00	0,004
752,00	0,001
753,00	0,011
754,00	0,001
755,00	-0,001
756,00	0,002
757,00	0,011
758,00	0,008
759,00	0,003
760,00	0,008
761,00	0,002
762,00	0,007
763,00	-0,004
764,00	0,002
765,00	0,003
766,00	0,010
767,00	0,007
768,00	0,006
769,00	0,001
770,00	0,003
771,00	-0,001
772,00	0,008
773,00	0,010
774,00	0,000
775,00	0,003
776,00	0,005
777,00	0,003
778,00	-0,002
779,00	0,004
780,00	0,002
781,00	0,006
782,00	-0,002
783,00	0,011
784,00	-0,000
785,00	-0,004
786,00	-0,006
787,00	0,004
788,00	0,006
789,00	-0,001
790,00	-0,004
791,00	0,005
792,00	-0,001
793,00	-0,006
794,00	-0,009
795,00	0,010
796,00	0,002
797,00	0,000
798,00	0,005
799,00	0,003
800,00	-0,003
801,00	-0,000
802,00	-0,010
803,00	-0,003
804,00	0,002
805,00	-0,001
806,00	-0,001
807,00	0,005
808,00	0,000
809,00	0,011
810,00	0,009
811,00	0,009
812,00	0,008
813,00	-0,001
814,00	0,007
815,00	0,010
816,00	0,004
817,00	-0,003
818,00	0,005
819,00	-0,008
820,00	0,002
821,00	0,001
822,00	0,006
823,00	-0,006
824,00	-0,001
825,00	-0,004
826,00	-0,001
827,00	-0,001
828,00	-0,002
829,00	0,002
830,00	0,007
831,00	-0,002
832,00	0,002
833,00	-0,007
834,00	-0,007
835,00	0,000
836,00	0,006
837,00	0,010
838,00	0,005
839,00	-0,003
840,00	0,005
841,00	0,007
842,00	-0,005
843,00	-0,001
844,00	0,006
845,00	-0,006
846,00	0,001
847,00	0,012
848,00	-0,000
849,00	-0,000
850,00	0,006
851,00	0,001
852,00	-0,003
853,00	-0,002
854,00	0,006
855,00	0,000
856,00	0,012
857,00	0,004
858,00	0,007
859,00	0,014
860,00	0,009
861,00	0,001
862,00	0,006
863,00	0,000
864,00	0,010
865,00	0,014
866,00	0,008
867,00	0,002
868,00	-0,001
869,00	0,015
870,00	0,019
871,00	-0,001
872,00	0,006
873,00	-0,001
874,00	-0,003
875,00	0,000
876,00	0,001
877,00	0,005
878,00	-0,000
879,00	-0,005
880,00	0,005
881,00	-0,006
882,00	-0,007
883,00	-0,006
884,00	0,004
885,00	-0,009
886,00	-0,012
887,00	-0,003
888,00	-0,016
889,00	0,011
890,00	0,012
891,00	-0,010
892,00	0,001
893,00	0,000
894,00	0,003
895,00	-0,013
896,00	-0,006
897,00	-0,004
898,00	-0,001
899,00	-0,003
900,00	0,005
901,00	-0,008
902,00	-0,021
903,00	-0,003
904,00	-0,005
905,00	-0,007
906,00	0,003
907,00	0,004
908,00	-0,004
909,00	-0,004
910,00	-0,010
911,00	-0,002
912,00	0,021
913,00	0,007
914,00	0,013
915,00	0,001
916,00	0,008
917,00	-0,008
918,00	-0,006
919,00	0,006
920,00	-0,007
921,00	0,007
922,00	0,003
923,00	-0,009
924,00	0,004
925,00	0,030
926,00	-0,008
927,00	-0,002
928,00	0,022
929,00	0,012
930,00	-0,008
931,00	0,026
932,00	0,013
933,00	-0,006
934,00	0,015
935,00	-0,003
936,00	-0,002
937,00	0,011
938,00	-0,000
939,00	-0,010
940,00	0,024
941,00	0,031
942,00	0,002
943,00	-0,019
944,00	-0,015
945,00	0,021
946,00	0,010
947,00	-0,006
948,00	0,004
949,00	-0,011
950,00	0,000
951,00	-0,004
952,00	0,016
953,00	-0,013
954,00	0,020
955,00	-0,023
956,00	-0,000
957,00	0,022
958,00	0,020
959,00	0,020
960,00	-0,007
961,00	0,009
962,00	0,019
963,00	0,015
964,00	-0,019
965,00	0,011
966,00	0,019
967,00	0,025
968,00	0,007
969,00	0,023
970,00	0,016
971,00	0,037
972,00	0,044
973,00	0,036
974,00	0,019
975,00	-0,033
976,00	0,015
977,00	-0,014
978,00	-0,024
979,00	0,004
980,00	0,003
981,00	0,026
982,00	0,033
983,00	0,051
984,00	0,056
985,00	0,034
986,00	-0,027
987,00	-0,014
988,00	-0,011
989,00	0,094
990,00	0,054
991,00	-0,033
992,00	0,032
993,00	0,040
994,00	0,030
995,00	0,006
996,00	0,031
997,00	0,001
998,00	-0,034
999,00	0,080
1000,00	0,034
>>>>>End Processed Spectral Data<<<<<
