SpectraSuite Datei
++++++++++++++++++++++++++++++++++++
Datum: Mon Feb 18 15:38:09 CET 2019
Benutzer: tu65fis
Dark-Spektrum vorhanden: Ja
Referenz-Spektrum vorhanden: Ja
Zahl der probierten Teilspektren: 1
Spektrometer: USB2G47534
Integrationszeit (usec): 10000 (USB2G47534)
Spektren Durchschnitt berechnet: 1 (USB2G47534)
Boxcar Glättung: 0 (USB2G47534)
Dunkelstromkorrektur: Nein (USB2G47534)
Puls/Lampe aktiviert: Nein (USB2G47534)
Correct for Detector Non-linearity: Nein (USB2G47534)
Streulichtkorrektur: Nein (USB2G47534)
Anzahl Pixel in verarbeitetem Spektrum: 651
>>>>>Begin Processed Spectral Data<<<<<
350,00	-0,518
351,00	-0,000
352,00	-0,000
353,00	-0,711
354,00	-1,402
355,00	-0,113
356,00	-0,456
357,00	-0,000
358,00	-0,000
359,00	-0,000
360,00	-0,000
361,00	-0,764
362,00	-0,000
363,00	-0,542
364,00	0,433
365,00	-0,000
366,00	-0,000
367,00	-0,000
368,00	-0,000
369,00	-0,000
370,00	0,406
371,00	-0,000
372,00	-0,000
373,00	0,177
374,00	1,206
375,00	-0,000
376,00	-0,000
377,00	0,175
378,00	0,542
379,00	-0,000
380,00	0,585
381,00	0,177
382,00	0,480
383,00	0,370
384,00	0,345
385,00	0,195
386,00	0,284
387,00	0,391
388,00	0,241
389,00	0,150
390,00	0,318
391,00	0,258
392,00	0,147
393,00	0,210
394,00	0,268
395,00	0,171
396,00	0,108
397,00	0,217
398,00	0,237
399,00	0,207
400,00	0,175
401,00	0,147
402,00	0,214
403,00	0,207
404,00	0,145
405,00	0,191
406,00	0,191
407,00	0,180
408,00	0,213
409,00	0,219
410,00	0,192
411,00	0,183
412,00	0,177
413,00	0,186
414,00	0,175
415,00	0,183
416,00	0,162
417,00	0,197
418,00	0,171
419,00	0,175
420,00	0,165
421,00	0,183
422,00	0,162
423,00	0,180
424,00	0,140
425,00	0,141
426,00	0,167
427,00	0,146
428,00	0,153
429,00	0,173
430,00	0,123
431,00	0,122
432,00	0,145
433,00	0,158
434,00	0,161
435,00	0,149
436,00	0,162
437,00	0,164
438,00	0,183
439,00	0,169
440,00	0,156
441,00	0,154
442,00	0,176
443,00	0,170
444,00	0,159
445,00	0,161
446,00	0,157
447,00	0,168
448,00	0,163
449,00	0,159
450,00	0,176
451,00	0,173
452,00	0,178
453,00	0,171
454,00	0,189
455,00	0,182
456,00	0,198
457,00	0,187
458,00	0,184
459,00	0,193
460,00	0,182
461,00	0,202
462,00	0,194
463,00	0,201
464,00	0,195
465,00	0,214
466,00	0,205
467,00	0,196
468,00	0,197
469,00	0,209
470,00	0,224
471,00	0,207
472,00	0,222
473,00	0,220
474,00	0,211
475,00	0,220
476,00	0,230
477,00	0,234
478,00	0,221
479,00	0,228
480,00	0,230
481,00	0,224
482,00	0,236
483,00	0,234
484,00	0,239
485,00	0,237
486,00	0,231
487,00	0,242
488,00	0,237
489,00	0,244
490,00	0,240
491,00	0,235
492,00	0,253
493,00	0,248
494,00	0,261
495,00	0,254
496,00	0,252
497,00	0,249
498,00	0,251
499,00	0,256
500,00	0,248
501,00	0,251
502,00	0,261
503,00	0,249
504,00	0,260
505,00	0,259
506,00	0,262
507,00	0,260
508,00	0,266
509,00	0,262
510,00	0,267
511,00	0,255
512,00	0,270
513,00	0,273
514,00	0,265
515,00	0,263
516,00	0,248
517,00	0,256
518,00	0,257
519,00	0,255
520,00	0,254
521,00	0,259
522,00	0,258
523,00	0,256
524,00	0,260
525,00	0,257
526,00	0,265
527,00	0,259
528,00	0,254
529,00	0,245
530,00	0,242
531,00	0,238
532,00	0,243
533,00	0,243
534,00	0,242
535,00	0,241
536,00	0,244
537,00	0,234
538,00	0,227
539,00	0,243
540,00	0,232
541,00	0,232
542,00	0,237
543,00	0,236
544,00	0,226
545,00	0,227
546,00	0,229
547,00	0,230
548,00	0,221
549,00	0,223
550,00	0,221
551,00	0,222
552,00	0,223
553,00	0,217
554,00	0,212
555,00	0,214
556,00	0,215
557,00	0,214
558,00	0,209
559,00	0,206
560,00	0,213
561,00	0,206
562,00	0,210
563,00	0,202
564,00	0,201
565,00	0,201
566,00	0,202
567,00	0,202
568,00	0,201
569,00	0,202
570,00	0,196
571,00	0,200
572,00	0,197
573,00	0,198
574,00	0,193
575,00	0,196
576,00	0,195
577,00	0,192
578,00	0,195
579,00	0,198
580,00	0,185
581,00	0,200
582,00	0,195
583,00	0,196
584,00	0,199
585,00	0,193
586,00	0,202
587,00	0,201
588,00	0,196
589,00	0,191
590,00	0,199
591,00	0,200
592,00	0,198
593,00	0,198
594,00	0,206
595,00	0,205
596,00	0,209
597,00	0,209
598,00	0,207
599,00	0,214
600,00	0,215
601,00	0,222
602,00	0,225
603,00	0,236
604,00	0,241
605,00	0,243
606,00	0,250
607,00	0,260
608,00	0,259
609,00	0,273
610,00	0,279
611,00	0,292
612,00	0,294
613,00	0,298
614,00	0,317
615,00	0,326
616,00	0,335
617,00	0,342
618,00	0,353
619,00	0,366
620,00	0,370
621,00	0,379
622,00	0,387
623,00	0,392
624,00	0,401
625,00	0,403
626,00	0,407
627,00	0,410
628,00	0,411
629,00	0,417
630,00	0,406
631,00	0,409
632,00	0,409
633,00	0,406
634,00	0,393
635,00	0,387
636,00	0,380
637,00	0,374
638,00	0,367
639,00	0,353
640,00	0,347
641,00	0,324
642,00	0,309
643,00	0,304
644,00	0,295
645,00	0,283
646,00	0,261
647,00	0,252
648,00	0,235
649,00	0,229
650,00	0,213
651,00	0,205
652,00	0,191
653,00	0,181
654,00	0,177
655,00	0,162
656,00	0,148
657,00	0,151
658,00	0,133
659,00	0,128
660,00	0,130
661,00	0,121
662,00	0,115
663,00	0,105
664,00	0,097
665,00	0,102
666,00	0,097
667,00	0,089
668,00	0,088
669,00	0,082
670,00	0,084
671,00	0,067
672,00	0,075
673,00	0,070
674,00	0,072
675,00	0,069
676,00	0,071
677,00	0,059
678,00	0,068
679,00	0,059
680,00	0,058
681,00	0,059
682,00	0,061
683,00	0,058
684,00	0,058
685,00	0,061
686,00	0,060
687,00	0,055
688,00	0,056
689,00	0,054
690,00	0,059
691,00	0,062
692,00	0,054
693,00	0,049
694,00	0,056
695,00	0,052
696,00	0,054
697,00	0,048
698,00	0,056
699,00	0,050
700,00	0,055
701,00	0,051
702,00	0,048
703,00	0,047
704,00	0,046
705,00	0,044
706,00	0,045
707,00	0,056
708,00	0,059
709,00	0,054
710,00	0,051
711,00	0,055
712,00	0,052
713,00	0,048
714,00	0,055
715,00	0,046
716,00	0,050
717,00	0,051
718,00	0,046
719,00	0,054
720,00	0,045
721,00	0,053
722,00	0,046
723,00	0,041
724,00	0,052
725,00	0,049
726,00	0,055
727,00	0,045
728,00	0,050
729,00	0,049
730,00	0,048
731,00	0,053
732,00	0,044
733,00	0,046
734,00	0,052
735,00	0,044
736,00	0,046
737,00	0,049
738,00	0,045
739,00	0,048
740,00	0,044
741,00	0,052
742,00	0,045
743,00	0,047
744,00	0,045
745,00	0,051
746,00	0,044
747,00	0,052
748,00	0,050
749,00	0,045
750,00	0,056
751,00	0,051
752,00	0,048
753,00	0,050
754,00	0,051
755,00	0,048
756,00	0,046
757,00	0,056
758,00	0,054
759,00	0,049
760,00	0,048
761,00	0,047
762,00	0,049
763,00	0,036
764,00	0,046
765,00	0,045
766,00	0,045
767,00	0,050
768,00	0,048
769,00	0,041
770,00	0,045
771,00	0,047
772,00	0,054
773,00	0,052
774,00	0,046
775,00	0,047
776,00	0,045
777,00	0,048
778,00	0,042
779,00	0,047
780,00	0,046
781,00	0,049
782,00	0,037
783,00	0,055
784,00	0,053
785,00	0,046
786,00	0,039
787,00	0,048
788,00	0,049
789,00	0,045
790,00	0,043
791,00	0,054
792,00	0,050
793,00	0,036
794,00	0,034
795,00	0,048
796,00	0,054
797,00	0,049
798,00	0,039
799,00	0,051
800,00	0,050
801,00	0,049
802,00	0,042
803,00	0,048
804,00	0,048
805,00	0,045
806,00	0,045
807,00	0,057
808,00	0,056
809,00	0,051
810,00	0,054
811,00	0,065
812,00	0,058
813,00	0,059
814,00	0,055
815,00	0,055
816,00	0,047
817,00	0,047
818,00	0,042
819,00	0,039
820,00	0,048
821,00	0,045
822,00	0,049
823,00	0,048
824,00	0,050
825,00	0,048
826,00	0,045
827,00	0,047
828,00	0,047
829,00	0,045
830,00	0,051
831,00	0,050
832,00	0,046
833,00	0,051
834,00	0,041
835,00	0,041
836,00	0,059
837,00	0,051
838,00	0,050
839,00	0,052
840,00	0,045
841,00	0,048
842,00	0,045
843,00	0,052
844,00	0,047
845,00	0,050
846,00	0,049
847,00	0,046
848,00	0,058
849,00	0,041
850,00	0,046
851,00	0,047
852,00	0,047
853,00	0,048
854,00	0,042
855,00	0,037
856,00	0,057
857,00	0,035
858,00	0,042
859,00	0,057
860,00	0,051
861,00	0,053
862,00	0,057
863,00	0,059
864,00	0,055
865,00	0,056
866,00	0,045
867,00	0,051
868,00	0,049
869,00	0,047
870,00	0,054
871,00	0,040
872,00	0,048
873,00	0,041
874,00	0,046
875,00	0,043
876,00	0,048
877,00	0,047
878,00	0,050
879,00	0,025
880,00	0,041
881,00	0,030
882,00	0,043
883,00	0,065
884,00	0,068
885,00	0,042
886,00	0,019
887,00	0,042
888,00	0,064
889,00	0,040
890,00	0,050
891,00	0,043
892,00	0,034
893,00	0,037
894,00	0,045
895,00	0,027
896,00	0,041
897,00	0,038
898,00	0,041
899,00	0,033
900,00	0,038
901,00	0,043
902,00	0,028
903,00	0,041
904,00	0,043
905,00	0,053
906,00	0,035
907,00	0,040
908,00	0,036
909,00	0,037
910,00	0,035
911,00	0,059
912,00	0,051
913,00	0,046
914,00	0,057
915,00	0,037
916,00	0,062
917,00	0,042
918,00	0,048
919,00	0,051
920,00	0,051
921,00	0,049
922,00	0,053
923,00	0,043
924,00	0,078
925,00	0,062
926,00	0,050
927,00	0,043
928,00	0,057
929,00	0,047
930,00	0,037
931,00	0,066
932,00	0,054
933,00	0,031
934,00	0,047
935,00	0,045
936,00	0,053
937,00	0,044
938,00	0,016
939,00	0,037
940,00	0,065
941,00	0,072
942,00	0,046
943,00	0,031
944,00	0,040
945,00	0,073
946,00	0,027
947,00	0,030
948,00	0,061
949,00	0,052
950,00	0,048
951,00	0,037
952,00	0,051
953,00	0,033
954,00	0,070
955,00	0,029
956,00	0,045
957,00	0,058
958,00	0,029
959,00	0,004
960,00	0,067
961,00	0,045
962,00	0,071
963,00	0,063
964,00	0,045
965,00	0,061
966,00	0,052
967,00	0,080
968,00	0,078
969,00	0,049
970,00	0,047
971,00	0,083
972,00	0,074
973,00	0,069
974,00	0,088
975,00	0,006
976,00	0,091
977,00	0,015
978,00	0,056
979,00	0,036
980,00	0,080
981,00	0,043
982,00	0,042
983,00	0,077
984,00	0,083
985,00	0,048
986,00	0,152
987,00	0,093
988,00	0,081
989,00	0,169
990,00	0,093
991,00	-0,005
992,00	0,064
993,00	0,094
994,00	0,036
995,00	0,060
996,00	0,003
997,00	0,124
998,00	0,060
999,00	0,081
1000,00	0,076
>>>>>End Processed Spectral Data<<<<<
