SpectraSuite Datei
++++++++++++++++++++++++++++++++++++
Datum: Mon Feb 18 15:59:47 CET 2019
Benutzer: tu65fis
Dark-Spektrum vorhanden: Ja
Referenz-Spektrum vorhanden: Ja
Zahl der probierten Teilspektren: 1
Spektrometer: USB2G47534
Integrationszeit (usec): 10000 (USB2G47534)
Spektren Durchschnitt berechnet: 1 (USB2G47534)
Boxcar Glättung: 0 (USB2G47534)
Dunkelstromkorrektur: Nein (USB2G47534)
Puls/Lampe aktiviert: Nein (USB2G47534)
Correct for Detector Non-linearity: Nein (USB2G47534)
Streulichtkorrektur: Nein (USB2G47534)
Anzahl Pixel in verarbeitetem Spektrum: 651
>>>>>Begin Processed Spectral Data<<<<<
350,00	-4,04
351,00	-6,87
352,00	-8,38
353,00	-8,77
354,00	-2,21
355,00	-8,05
356,00	-2,11
357,00	-1,93
358,00	-6,23
359,00	-2,74
360,00	-3,22
361,00	-9,10
362,00	3,89
363,00	-8,00
364,00	4,15
365,00	-1,02
366,00	-7,40
367,00	-4,69
368,00	3,16
369,00	-0,88
370,00	-3,53
371,00	4,00
372,00	1,86
373,00	7,15
374,00	-1,55
375,00	1,29
376,00	3,11
377,00	5,99
378,00	9,10
379,00	8,16
380,00	8,69
381,00	12,02
382,00	13,16
383,00	20,22
384,00	15,24
385,00	14,88
386,00	21,88
387,00	23,62
388,00	18,47
389,00	23,45
390,00	26,01
391,00	37,51
392,00	40,88
393,00	32,92
394,00	42,48
395,00	47,38
396,00	57,73
397,00	57,71
398,00	54,79
399,00	60,00
400,00	62,78
401,00	81,95
402,00	68,04
403,00	69,83
404,00	78,19
405,00	79,05
406,00	82,34
407,00	92,50
408,00	101,79
409,00	107,76
410,00	102,79
411,00	115,79
412,00	115,24
413,00	119,64
414,00	120,63
415,00	133,33
416,00	127,14
417,00	135,71
418,00	148,41
419,00	148,18
420,00	159,21
421,00	154,25
422,00	175,35
423,00	182,11
424,00	191,02
425,00	184,37
426,00	196,34
427,00	200,97
428,00	198,63
429,00	209,01
430,00	240,56
431,00	230,52
432,00	241,96
433,00	250,53
434,00	263,61
435,00	267,01
436,00	291,72
437,00	276,84
438,00	292,90
439,00	314,71
440,00	313,32
441,00	323,62
442,00	342,13
443,00	356,80
444,00	364,96
445,00	377,90
446,00	352,15
447,00	364,64
448,00	390,85
449,00	393,00
450,00	398,91
451,00	383,05
452,00	423,81
453,00	451,35
454,00	426,89
455,00	437,24
456,00	436,35
457,00	457,95
458,00	439,80
459,00	485,03
460,00	488,80
461,00	483,98
462,00	516,65
463,00	517,69
464,00	532,60
465,00	579,08
466,00	592,09
467,00	593,42
468,00	612,74
469,00	656,23
470,00	669,81
471,00	673,91
472,00	695,82
473,00	759,00
474,00	758,00
475,00	756,62
476,00	822,29
477,00	841,62
478,00	897,39
479,00	906,93
480,00	911,92
481,00	964,50
482,00	989,65
483,00	1034,05
484,00	1060,05
485,00	1064,22
486,00	1128,46
487,00	1140,24
488,00	1176,29
489,00	1223,42
490,00	1231,09
491,00	1278,06
492,00	1302,50
493,00	1324,19
494,00	1346,02
495,00	1397,39
496,00	1420,80
497,00	1448,78
498,00	1455,53
499,00	1503,60
500,00	1493,72
501,00	1537,04
502,00	1568,21
503,00	1591,51
504,00	1614,91
505,00	1622,93
506,00	1644,08
507,00	1657,54
508,00	1660,75
509,00	1692,96
510,00	1706,01
511,00	1737,65
512,00	1743,99
513,00	1746,00
514,00	1778,10
515,00	1815,70
516,00	1827,07
517,00	1808,46
518,00	1838,58
519,00	1844,43
520,00	1876,49
521,00	1898,64
522,00	1879,51
523,00	1894,26
524,00	1920,27
525,00	1966,06
526,00	1960,25
527,00	1994,80
528,00	1993,54
529,00	2000,86
530,00	2044,97
531,00	2079,72
532,00	2058,95
533,00	2090,40
534,00	2081,99
535,00	2126,07
536,00	2156,08
537,00	2155,31
538,00	2205,72
539,00	2194,66
540,00	2240,61
541,00	2254,08
542,00	2265,10
543,00	2306,33
544,00	2314,47
545,00	2346,50
546,00	2373,20
547,00	2373,13
548,00	2389,46
549,00	2398,21
550,00	2412,97
551,00	2433,19
552,00	2464,70
553,00	2476,13
554,00	2484,88
555,00	2508,29
556,00	2500,00
557,00	2508,20
558,00	2520,41
559,00	2544,57
560,00	2537,15
561,00	2567,21
562,00	2553,84
563,00	2605,75
564,00	2566,92
565,00	2595,88
566,00	2578,02
567,00	2603,75
568,00	2600,87
569,00	2607,20
570,00	2620,75
571,00	2628,99
572,00	2635,02
573,00	2639,00
574,00	2651,99
575,00	2632,33
576,00	2645,84
577,00	2666,73
578,00	2687,19
579,00	2696,90
580,00	2695,04
581,00	2713,64
582,00	2714,49
583,00	2745,04
584,00	2724,05
585,00	2741,54
586,00	2756,00
587,00	2772,41
588,00	2757,72
589,00	2797,99
590,00	2788,06
591,00	2822,36
592,00	2811,24
593,00	2822,91
594,00	2840,49
595,00	2827,88
596,00	2866,12
597,00	2875,03
598,00	2869,22
599,00	2877,75
600,00	2891,19
601,00	2916,48
602,00	2920,58
603,00	2932,85
604,00	2914,96
605,00	2970,35
606,00	2953,39
607,00	2991,07
608,00	2969,98
609,00	2989,89
610,00	3000,72
611,00	2999,59
612,00	3004,00
613,00	3025,06
614,00	3016,99
615,00	3021,17
616,00	3017,87
617,00	3019,79
618,00	2985,81
619,00	2979,20
620,00	3000,97
621,00	2991,46
622,00	3024,47
623,00	2981,65
624,00	2975,83
625,00	2980,81
626,00	2997,89
627,00	3011,65
628,00	3011,19
629,00	2971,99
630,00	2985,02
631,00	2967,36
632,00	2992,14
633,00	2965,18
634,00	2970,28
635,00	2979,39
636,00	2992,65
637,00	2972,83
638,00	2951,81
639,00	2947,46
640,00	2935,08
641,00	2968,01
642,00	2974,24
643,00	2942,42
644,00	2935,71
645,00	2955,68
646,00	2944,90
647,00	2974,73
648,00	2969,71
649,00	2945,56
650,00	2920,45
651,00	2971,86
652,00	2922,61
653,00	2912,85
654,00	2942,83
655,00	2940,51
656,00	2961,66
657,00	2952,39
658,00	2933,96
659,00	2924,39
660,00	2951,55
661,00	2924,57
662,00	2911,45
663,00	2919,50
664,00	2896,60
665,00	2885,89
666,00	2847,89
667,00	2868,10
668,00	2861,11
669,00	2870,65
670,00	2856,25
671,00	2847,79
672,00	2827,42
673,00	2803,49
674,00	2817,30
675,00	2793,61
676,00	2758,09
677,00	2770,20
678,00	2730,60
679,00	2733,81
680,00	2731,38
681,00	2696,33
682,00	2692,51
683,00	2686,82
684,00	2658,88
685,00	2640,95
686,00	2627,64
687,00	2598,31
688,00	2634,78
689,00	2567,13
690,00	2593,54
691,00	2524,63
692,00	2531,66
693,00	2505,16
694,00	2521,54
695,00	2485,31
696,00	2491,10
697,00	2482,77
698,00	2475,47
699,00	2428,24
700,00	2438,85
701,00	2406,60
702,00	2428,94
703,00	2417,86
704,00	2392,15
705,00	2357,62
706,00	2359,46
707,00	2361,07
708,00	2354,17
709,00	2359,45
710,00	2374,99
711,00	2314,63
712,00	2290,42
713,00	2306,96
714,00	2301,84
715,00	2285,69
716,00	2309,03
717,00	2285,40
718,00	2263,08
719,00	2278,06
720,00	2211,97
721,00	2227,56
722,00	2240,18
723,00	2222,53
724,00	2191,14
725,00	2213,08
726,00	2188,44
727,00	2205,32
728,00	2194,46
729,00	2181,90
730,00	2145,75
731,00	2134,14
732,00	2142,75
733,00	2112,83
734,00	2122,88
735,00	2140,33
736,00	2078,46
737,00	2091,12
738,00	2056,08
739,00	2049,70
740,00	2064,10
741,00	2044,30
742,00	2000,82
743,00	2002,54
744,00	1993,87
745,00	1984,07
746,00	1954,29
747,00	1928,43
748,00	1937,70
749,00	1897,08
750,00	1910,12
751,00	1862,93
752,00	1855,83
753,00	1834,16
754,00	1812,75
755,00	1785,10
756,00	1779,65
757,00	1740,65
758,00	1751,26
759,00	1718,20
760,00	1684,92
761,00	1689,99
762,00	1668,97
763,00	1642,56
764,00	1639,65
765,00	1646,57
766,00	1591,44
767,00	1576,57
768,00	1558,80
769,00	1560,97
770,00	1541,06
771,00	1526,32
772,00	1503,98
773,00	1474,74
774,00	1476,62
775,00	1494,91
776,00	1434,97
777,00	1443,11
778,00	1430,08
779,00	1414,88
780,00	1433,22
781,00	1414,82
782,00	1433,67
783,00	1429,05
784,00	1426,19
785,00	1431,20
786,00	1438,92
787,00	1443,56
788,00	1436,80
789,00	1431,86
790,00	1411,07
791,00	1391,06
792,00	1424,46
793,00	1422,56
794,00	1404,36
795,00	1395,15
796,00	1392,60
797,00	1353,88
798,00	1349,27
799,00	1365,27
800,00	1354,22
801,00	1340,48
802,00	1308,31
803,00	1303,15
804,00	1289,77
805,00	1281,89
806,00	1289,74
807,00	1268,64
808,00	1271,10
809,00	1236,14
810,00	1243,09
811,00	1210,39
812,00	1213,90
813,00	1196,06
814,00	1170,29
815,00	1168,75
816,00	1146,16
817,00	1162,00
818,00	1150,28
819,00	1121,26
820,00	1109,39
821,00	1116,11
822,00	1125,01
823,00	1092,77
824,00	1089,51
825,00	1073,22
826,00	1071,72
827,00	1055,84
828,00	1062,88
829,00	1042,94
830,00	1024,84
831,00	1040,64
832,00	1025,71
833,00	1006,72
834,00	986,61
835,00	1004,98
836,00	983,78
837,00	976,37
838,00	976,40
839,00	978,77
840,00	962,00
841,00	961,94
842,00	924,30
843,00	926,50
844,00	921,83
845,00	907,35
846,00	917,89
847,00	889,97
848,00	883,24
849,00	865,20
850,00	855,93
851,00	848,65
852,00	846,29
853,00	820,90
854,00	810,72
855,00	813,72
856,00	796,73
857,00	785,84
858,00	788,11
859,00	771,63
860,00	773,78
861,00	748,13
862,00	743,20
863,00	756,14
864,00	717,06
865,00	711,10
866,00	720,74
867,00	686,61
868,00	697,72
869,00	703,49
870,00	683,66
871,00	671,91
872,00	661,99
873,00	659,07
874,00	656,01
875,00	648,48
876,00	644,83
877,00	630,28
878,00	619,02
879,00	623,29
880,00	608,41
881,00	597,14
882,00	572,69
883,00	570,87
884,00	574,96
885,00	558,93
886,00	544,93
887,00	539,20
888,00	534,00
889,00	538,77
890,00	538,36
891,00	542,49
892,00	538,94
893,00	520,84
894,00	522,60
895,00	528,62
896,00	537,39
897,00	529,73
898,00	541,73
899,00	545,12
900,00	532,10
901,00	545,32
902,00	543,66
903,00	535,18
904,00	545,09
905,00	543,46
906,00	535,74
907,00	525,12
908,00	548,84
909,00	525,18
910,00	524,43
911,00	509,03
912,00	509,29
913,00	499,03
914,00	494,00
915,00	495,54
916,00	495,81
917,00	478,19
918,00	479,13
919,00	479,00
920,00	458,20
921,00	466,59
922,00	442,07
923,00	449,56
924,00	428,37
925,00	413,25
926,00	415,53
927,00	397,75
928,00	412,29
929,00	403,54
930,00	381,64
931,00	377,69
932,00	374,69
933,00	357,22
934,00	355,97
935,00	348,39
936,00	343,07
937,00	343,10
938,00	326,72
939,00	330,90
940,00	324,49
941,00	318,66
942,00	314,64
943,00	305,34
944,00	281,67
945,00	291,46
946,00	304,76
947,00	275,59
948,00	274,65
949,00	264,72
950,00	267,69
951,00	259,22
952,00	262,97
953,00	248,01
954,00	250,18
955,00	217,25
956,00	234,27
957,00	220,71
958,00	211,16
959,00	215,06
960,00	218,28
961,00	197,06
962,00	187,95
963,00	187,17
964,00	190,47
965,00	187,54
966,00	180,74
967,00	176,94
968,00	172,39
969,00	163,12
970,00	159,27
971,00	156,03
972,00	152,72
973,00	133,01
974,00	138,44
975,00	140,42
976,00	127,10
977,00	131,37
978,00	132,48
979,00	119,93
980,00	119,76
981,00	117,90
982,00	109,25
983,00	110,03
984,00	105,43
985,00	101,90
986,00	87,98
987,00	78,85
988,00	89,78
989,00	79,94
990,00	81,66
991,00	83,56
992,00	77,01
993,00	65,06
994,00	67,89
995,00	62,52
996,00	70,53
997,00	53,61
998,00	57,94
999,00	58,29
1000,00	57,36
>>>>>End Processed Spectral Data<<<<<
